# 1304     AichiSR QXAFS
# Start     : 8.9544
# End       : 9.0544
# Dir       : Backward
# Points    : 300
# ScanTime  : 1.01549
# Date      : 13.04.23 22:26
# Ring Cur. : 25.4[mA]
12.7557	12.6118	0.299439	0.228967
12.7562	12.6122	0.299493	0.227667
12.7566	12.6127	0.301221	0.232453
12.7571	12.6132	0.302253	0.232903
12.7576	12.6136	0.299555	0.231974
12.7581	12.6141	0.299917	0.232999
12.7585	12.6146	0.304415	0.234981
12.759	12.615	0.301996	0.235087
12.7595	12.6155	0.302254	0.236216
12.7599	12.616	0.302529	0.235345
12.7604	12.6165	0.302515	0.234914
12.7609	12.617	0.304	0.23514
12.7614	12.6174	0.304615	0.23623
12.7618	12.6179	0.304091	0.236666
12.7623	12.6184	0.302593	0.236006
12.7628	12.6188	0.302064	0.234154
12.7632	12.6193	0.303771	0.23462
12.7637	12.6198	0.302415	0.236524
12.7642	12.6202	0.304437	0.237983
12.7647	12.6207	0.302178	0.237141
12.7651	12.6212	0.301599	0.235611
12.7656	12.6217	0.302346	0.235752
12.7661	12.6222	0.305919	0.23831
12.7666	12.6226	0.304142	0.239073
12.767	12.6231	0.301752	0.238725
12.7675	12.6236	0.300838	0.237034
12.768	12.624	0.305484	0.239968
12.7684	12.6245	0.304119	0.239942
12.7689	12.625	0.302848	0.2416
12.7694	12.6255	0.30326	0.242366
12.7699	12.6259	0.303335	0.240284
12.7703	12.6264	0.305058	0.24225
12.7708	12.6269	0.303946	0.243637
12.7713	12.6274	0.303581	0.244775
12.7717	12.6279	0.302098	0.244195
12.7722	12.6283	0.303271	0.242376
12.7727	12.6288	0.304137	0.24329
12.7732	12.6293	0.305184	0.244227
12.7736	12.6297	0.304445	0.24543
12.7741	12.6302	0.303247	0.245286
12.7746	12.6307	0.303219	0.242119
12.7751	12.6311	0.304853	0.241664
12.7755	12.6316	0.305499	0.244217
12.776	12.6321	0.304443	0.245629
12.7765	12.6326	0.30529	0.243977
12.7769	12.633	0.303108	0.24216
12.7774	12.6335	0.306691	0.244741
12.7779	12.6339	0.304984	0.243808
12.7784	12.6344	0.304267	0.244521
12.7788	12.6349	0.306457	0.246296
12.7793	12.6354	0.305388	0.243775
12.7798	12.6358	0.306388	0.24363
12.7802	12.6363	0.308351	0.247516
12.7807	12.6368	0.306986	0.247948
12.7812	12.6373	0.304291	0.246771
12.7817	12.6378	0.304381	0.245836
12.7821	12.6382	0.307692	0.247136
12.7826	12.6387	0.308815	0.248877
12.7831	12.6392	0.305642	0.251078
12.7836	12.6396	0.307642	0.250116
12.784	12.6401	0.306741	0.249001
12.7845	12.6405	0.307376	0.249349
12.785	12.641	0.308144	0.253344
12.7854	12.6415	0.306402	0.251614
12.7859	12.642	0.305433	0.250526
12.7864	12.6424	0.305426	0.249247
12.7869	12.6429	0.308482	0.249189
12.7873	12.6433	0.305293	0.249877
12.7878	12.6438	0.305739	0.249576
12.7883	12.6443	0.306457	0.250731
12.7887	12.6448	0.30451	0.245957
12.7892	12.6452	0.304436	0.245007
12.7897	12.6457	0.306956	0.247263
12.7902	12.6462	0.306978	0.247951
12.7906	12.6467	0.303715	0.24338
12.7911	12.6472	0.304061	0.243106
12.7916	12.6477	0.309094	0.242763
12.7921	12.6481	0.306219	0.240419
12.7925	12.6486	0.306553	0.240977
12.793	12.6491	0.307171	0.239027
12.7935	12.6495	0.307171	0.235778
12.7939	12.65	0.30704	0.233578
12.7944	12.6505	0.308281	0.233612
12.7949	12.651	0.310198	0.23327
12.7954	12.6514	0.308141	0.230619
12.7958	12.6519	0.30878	0.227089
12.7963	12.6524	0.311795	0.226879
12.7968	12.6528	0.309833	0.224647
12.7972	12.6533	0.309025	0.224739
12.7977	12.6538	0.309022	0.222111
12.7982	12.6543	0.306939	0.216878
12.7987	12.6547	0.309151	0.216924
12.7991	12.6552	0.309946	0.217674
12.7996	12.6557	0.310565	0.217283
12.8001	12.6562	0.309178	0.214441
12.8006	12.6566	0.308505	0.212693
12.801	12.6571	0.312484	0.214413
12.8015	12.6576	0.311441	0.214313
12.802	12.6581	0.311238	0.215957
12.8024	12.6585	0.310121	0.214695
12.8029	12.659	0.308412	0.213787
12.8034	12.6595	0.310867	0.214386
12.8039	12.6599	0.310236	0.217338
12.8043	12.6604	0.311315	0.218254
12.8048	12.6609	0.30848	0.217919
12.8053	12.6614	0.309972	0.218159
12.8057	12.6618	0.311036	0.221019
12.8062	12.6623	0.311096	0.222339
12.8067	12.6628	0.31203	0.227247
12.8072	12.6632	0.310009	0.227157
12.8076	12.6637	0.309861	0.226255
12.8081	12.6642	0.312597	0.228535
12.8086	12.6646	0.312016	0.23241
12.8091	12.6651	0.312307	0.234634
12.8095	12.6656	0.309496	0.233489
12.81	12.6661	0.311442	0.236544
12.8105	12.6665	0.313105	0.236702
12.8109	12.667	0.31149	0.239821
12.8114	12.6675	0.312078	0.24303
12.8119	12.668	0.311063	0.245128
12.8124	12.6684	0.308848	0.243781
12.8128	12.6689	0.310112	0.245759
12.8133	12.6694	0.311711	0.250738
12.8138	12.6698	0.311919	0.253448
12.8142	12.6703	0.31142	0.254235
12.8147	12.6708	0.309322	0.25435
12.8152	12.6712	0.312889	0.258246
12.8157	12.6717	0.311536	0.259623
12.8161	12.6722	0.311176	0.261999
12.8166	12.6726	0.312044	0.262302
12.8171	12.6731	0.310642	0.261646
12.8176	12.6736	0.311274	0.262376
12.818	12.674	0.309666	0.265621
12.8185	12.6745	0.313493	0.269293
12.819	12.675	0.311427	0.265942
12.8194	12.6755	0.309591	0.265359
12.8199	12.676	0.313314	0.268317
12.8204	12.6764	0.311683	0.270264
12.8209	12.6769	0.311704	0.270757
12.8213	12.6774	0.312316	0.270613
12.8218	12.6779	0.311915	0.267911
12.8223	12.6784	0.315689	0.270611
12.8227	12.6788	0.315491	0.271087
12.8232	12.6793	0.31409	0.271409
12.8237	12.6798	0.310831	0.266455
12.8242	12.6802	0.311466	0.26279
12.8246	12.6807	0.314993	0.263305
12.8251	12.6812	0.311506	0.261286
12.8256	12.6817	0.311151	0.259378
12.8261	12.6821	0.312752	0.257455
12.8265	12.6826	0.312397	0.253103
12.827	12.6831	0.311413	0.249741
12.8275	12.6835	0.312718	0.249823
12.8279	12.684	0.312796	0.249757
12.8284	12.6845	0.31092	0.244367
12.8289	12.6849	0.312177	0.24316
12.8294	12.6854	0.31457	0.240619
12.8298	12.6859	0.311955	0.237527
12.8303	12.6864	0.31214	0.234918
12.8308	12.6869	0.314119	0.232379
12.8312	12.6874	0.31173	0.226122
12.8317	12.6878	0.314543	0.222813
12.8322	12.6883	0.314611	0.222428
12.8327	12.6888	0.313971	0.219635
12.8331	12.6892	0.313639	0.217671
12.8336	12.6897	0.314407	0.214754
12.8341	12.6901	0.316213	0.216214
12.8346	12.6906	0.313531	0.218309
12.835	12.6911	0.314203	0.221032
12.8355	12.6916	0.3155	0.223851
12.836	12.692	0.316005	0.22589
12.8364	12.6925	0.316686	0.231179
12.8369	12.693	0.315636	0.238085
12.8374	12.6934	0.314435	0.242453
12.8379	12.6939	0.315052	0.2447
12.8383	12.6944	0.314965	0.247098
12.8388	12.6948	0.317091	0.252763
12.8393	12.6953	0.316056	0.25484
12.8397	12.6958	0.314306	0.258155
12.8402	12.6963	0.317193	0.257129
12.8407	12.6968	0.31592	0.255129
12.8412	12.6972	0.31602	0.255019
12.8416	12.6977	0.318031	0.256569
12.8421	12.6982	0.316688	0.254386
12.8426	12.6986	0.315339	0.248681
12.8431	12.6991	0.31692	0.245714
12.8435	12.6996	0.318073	0.243532
12.844	12.7	0.31553	0.240464
12.8445	12.7005	0.315216	0.236455
12.8449	12.701	0.316051	0.232358
12.8454	12.7015	0.31698	0.229053
12.8459	12.7019	0.315823	0.224978
12.8464	12.7024	0.318159	0.226809
12.8468	12.7029	0.317206	0.224954
12.8473	12.7033	0.316797	0.22247
12.8478	12.7038	0.317881	0.2233
12.8482	12.7043	0.320286	0.228069
12.8487	12.7047	0.320557	0.234254
12.8492	12.7052	0.316408	0.239136
12.8497	12.7057	0.318469	0.246528
12.8501	12.7062	0.31847	0.252988
12.8506	12.7067	0.320365	0.262176
12.8511	12.7072	0.319789	0.275184
12.8516	12.7076	0.32101	0.287579
12.852	12.7081	0.31881	0.296733
12.8525	12.7086	0.320296	0.30975
12.853	12.7091	0.31996	0.325027
12.8534	12.7095	0.319709	0.33789
12.8539	12.71	0.320051	0.352226
12.8544	12.7105	0.320696	0.36586
12.8549	12.7109	0.321961	0.37698
12.8553	12.7114	0.321355	0.391123
12.8558	12.7119	0.32371	0.405029
12.8563	12.7123	0.322115	0.41498
12.8567	12.7128	0.32235	0.424191
12.8572	12.7133	0.321169	0.431547
12.8577	12.7137	0.322178	0.441487
12.8582	12.7142	0.322255	0.449914
12.8586	12.7147	0.320609	0.459338
12.8591	12.7152	0.322209	0.465986
12.8596	12.7157	0.321903	0.47274
12.8601	12.7161	0.320981	0.481229
12.8605	12.7166	0.323063	0.49465
12.861	12.7171	0.322297	0.504893
12.8615	12.7176	0.321209	0.503871
12.8619	12.718	0.323321	0.511256
12.8624	12.7185	0.32314	0.512743
12.8629	12.719	0.321346	0.510832
12.8634	12.7194	0.320562	0.506494
12.8638	12.7199	0.321593	0.501485
12.8643	12.7204	0.322027	0.496443
12.8648	12.7208	0.320251	0.49675
12.8652	12.7213	0.322305	0.503021
12.8657	12.7218	0.321006	0.510123
12.8662	12.7222	0.319014	0.516593
12.8667	12.7227	0.321992	0.543198
12.8671	12.7232	0.321121	0.577296
12.8676	12.7236	0.319624	0.61924
12.8681	12.7241	0.318194	0.668609
12.8686	12.7246	0.318495	0.719392
12.869	12.725	0.318148	0.760451
12.8695	12.7255	0.317451	0.803587
12.87	12.726	0.32011	0.847214
12.8704	12.7265	0.319067	0.875035
12.8709	12.727	0.318095	0.883678
12.8714	12.7274	0.320658	0.903059
12.8719	12.7279	0.32235	0.919022
12.8723	12.7284	0.319723	0.921807
12.8728	12.7288	0.31979	0.930639
12.8733	12.7293	0.320919	0.938916
12.8737	12.7298	0.32289	0.939797
12.8742	12.7302	0.320461	0.946078
12.8747	12.7307	0.322709	0.955978
12.8752	12.7312	0.32308	0.957196
12.8756	12.7317	0.322458	0.954755
12.8761	12.7322	0.32438	0.961659
12.8766	12.7326	0.323789	0.962687
12.8771	12.7331	0.323852	0.966063
12.8775	12.7336	0.322189	0.971983
12.878	12.734	0.322543	0.968189
12.8785	12.7345	0.323676	0.966346
12.8789	12.735	0.323247	0.968528
12.8794	12.7355	0.322832	0.97363
12.8799	12.736	0.323232	0.978886
12.8804	12.7364	0.323892	0.976451
12.8808	12.7369	0.324784	0.975406
12.8813	12.7374	0.323684	0.976304
12.8818	12.7379	0.324271	0.980026
12.8822	12.7383	0.32405	0.981623
12.8827	12.7388	0.323877	0.980356
12.8832	12.7393	0.324663	0.980196
12.8837	12.7397	0.323468	0.979429
12.8841	12.7402	0.323562	0.982342
12.8846	12.7407	0.324531	0.989006
12.8851	12.7412	0.324632	0.984479
12.8856	12.7416	0.325724	0.984034
12.886	12.7421	0.323301	0.986232
12.8865	12.7426	0.325214	0.988119
12.887	12.743	0.324857	0.988482
12.8874	12.7435	0.327166	0.991819
12.8879	12.744	0.327036	0.987193
12.8884	12.7444	0.325927	0.988895
12.8889	12.7449	0.326423	0.993643
12.8893	12.7454	0.327271	0.996043
12.8898	12.7459	0.326251	0.991533
12.8903	12.7464	0.326954	0.993144
12.8907	12.7468	0.327624	0.996171
12.8912	12.7473	0.326634	0.997478
12.8917	12.7478	0.325569	0.995324
12.8922	12.7483	0.327577	0.993623
12.8926	12.7487	0.328297	0.992088
12.8931	12.7492	0.325553	0.988376
12.8936	12.7496	0.326735	0.997797
12.8941	12.7501	0.328422	0.999066
12.8945	12.7506	0.326454	0.99313
12.895	12.7511	0.327795	0.995399
12.8955	12.7515	0.32767	1.0016
12.8959	12.752	0.327156	1.00107
12.8964	12.7525	0.326145	0.997009
12.8969	12.7529	0.328784	0.999611
12.8974	12.7534	0.328075	0.998995
12.8978	12.7539	0.325979	0.993767
12.8983	12.7543	0.327182	0.999034
12.8988	12.7548	0.327775	1.00206
