# 1304     AichiSR QXAFS
# Start     : 8.9544
# End       : 9.0544
# Dir       : Backward
# Points    : 300
# ScanTime  : 1.01549
# Date      : 13.04.23 22:31
# Ring Cur. : 25.6[mA]
12.7557	12.6118	0.308943	0.237197
12.7562	12.6123	0.307036	0.236945
12.7566	12.6127	0.308028	0.235695
12.7571	12.6132	0.307889	0.237744
12.7576	12.6137	0.310113	0.238073
12.7581	12.6141	0.310633	0.239874
12.7585	12.6146	0.310076	0.242038
12.759	12.6151	0.308098	0.239957
12.7595	12.6156	0.310112	0.240681
12.7599	12.6161	0.313171	0.241363
12.7604	12.6165	0.310902	0.24434
12.7609	12.617	0.310319	0.243055
12.7614	12.6175	0.310093	0.242512
12.7618	12.618	0.31136	0.24251
12.7623	12.6184	0.310643	0.241625
12.7628	12.6189	0.311551	0.243567
12.7632	12.6194	0.310546	0.243569
12.7637	12.6198	0.310654	0.242649
12.7642	12.6203	0.309235	0.239704
12.7647	12.6208	0.310246	0.242307
12.7651	12.6213	0.311187	0.243289
12.7656	12.6217	0.309757	0.244288
12.7661	12.6222	0.311341	0.244609
12.7666	12.6227	0.310919	0.242718
12.767	12.6231	0.313077	0.24506
12.7675	12.6236	0.31065	0.24608
12.768	12.6241	0.313255	0.249496
12.7684	12.6246	0.310276	0.246687
12.7689	12.625	0.311707	0.244837
12.7694	12.6255	0.312448	0.2474
12.7699	12.626	0.310766	0.247779
12.7703	12.6265	0.311134	0.249061
12.7708	12.6269	0.31016	0.248986
12.7713	12.6274	0.311128	0.247427
12.7717	12.6279	0.311353	0.248016
12.7722	12.6284	0.311836	0.250434
12.7727	12.6288	0.311581	0.252652
12.7732	12.6293	0.311858	0.250831
12.7736	12.6298	0.312935	0.249458
12.7741	12.6302	0.315235	0.250907
12.7746	12.6307	0.312204	0.251568
12.7751	12.6312	0.312431	0.251311
12.7755	12.6317	0.311886	0.249863
12.776	12.6321	0.312061	0.247713
12.7765	12.6326	0.312974	0.250311
12.7769	12.6331	0.312427	0.250265
12.7774	12.6335	0.313443	0.250913
12.7779	12.634	0.312462	0.249033
12.7784	12.6345	0.312543	0.249155
12.7788	12.6349	0.313877	0.251041
12.7793	12.6354	0.31376	0.252482
12.7798	12.6359	0.311932	0.25251
12.7802	12.6364	0.312955	0.250829
12.7807	12.6369	0.314534	0.252885
12.7812	12.6373	0.313497	0.25248
12.7817	12.6378	0.316446	0.255142
12.7821	12.6383	0.31398	0.255831
12.7826	12.6387	0.313087	0.254653
12.7831	12.6392	0.31445	0.25542
12.7836	12.6397	0.316349	0.257526
12.784	12.6401	0.313983	0.257409
12.7845	12.6406	0.312015	0.256849
12.785	12.6411	0.315376	0.255799
12.7854	12.6416	0.315314	0.256106
12.7859	12.642	0.313164	0.255236
12.7864	12.6425	0.315562	0.257634
12.7869	12.6429	0.315514	0.257916
12.7873	12.6434	0.313502	0.254211
12.7878	12.6439	0.312718	0.253442
12.7883	12.6443	0.315205	0.254529
12.7887	12.6448	0.314991	0.255868
12.7892	12.6453	0.311042	0.252845
12.7897	12.6458	0.312823	0.251489
12.7902	12.6463	0.313418	0.249586
12.7906	12.6467	0.312103	0.249999
12.7911	12.6472	0.315837	0.25194
12.7916	12.6477	0.313803	0.250243
12.7921	12.6482	0.313836	0.245008
12.7925	12.6487	0.314947	0.245452
12.793	12.6491	0.316329	0.245251
12.7935	12.6496	0.316866	0.243554
12.7939	12.6501	0.315757	0.241424
12.7944	12.6505	0.314939	0.23851
12.7949	12.651	0.31781	0.236734
12.7954	12.6515	0.316863	0.235369
12.7958	12.652	0.31846	0.236133
12.7963	12.6524	0.320088	0.232765
12.7968	12.6529	0.315582	0.228694
12.7972	12.6534	0.319927	0.228248
12.7977	12.6538	0.317544	0.227426
12.7982	12.6543	0.317212	0.226444
12.7987	12.6548	0.317505	0.22541
12.7991	12.6553	0.316599	0.221324
12.7996	12.6557	0.316892	0.219972
12.8001	12.6562	0.317205	0.219721
12.8006	12.6567	0.319538	0.221175
12.801	12.6572	0.31961	0.220556
12.8015	12.6577	0.318726	0.217429
12.802	12.6581	0.318489	0.218781
12.8024	12.6586	0.319544	0.220648
12.8029	12.6591	0.320018	0.223178
12.8034	12.6595	0.319178	0.222854
12.8039	12.66	0.31653	0.220654
12.8043	12.6605	0.320211	0.223515
12.8048	12.6609	0.319203	0.224965
12.8053	12.6614	0.318905	0.227793
12.8057	12.6619	0.319438	0.230266
12.8062	12.6623	0.317936	0.227914
12.8067	12.6628	0.319434	0.229702
12.8072	12.6633	0.319619	0.23326
12.8076	12.6637	0.321698	0.237056
12.8081	12.6642	0.320416	0.238167
12.8086	12.6647	0.318873	0.236461
12.8091	12.6652	0.321802	0.239658
12.8095	12.6656	0.320325	0.241216
12.81	12.6661	0.320223	0.244643
12.8105	12.6666	0.322536	0.24934
12.8109	12.6671	0.319473	0.246472
12.8114	12.6675	0.319787	0.247867
12.8119	12.668	0.320916	0.2529
12.8124	12.6685	0.321848	0.255927
12.8128	12.6689	0.318881	0.256033
12.8133	12.6694	0.319913	0.256226
12.8138	12.6699	0.322554	0.258218
12.8142	12.6703	0.320358	0.260229
12.8147	12.6708	0.321142	0.265746
12.8152	12.6713	0.320844	0.267851
12.8157	12.6718	0.319461	0.265401
12.8161	12.6722	0.32011	0.266548
12.8166	12.6727	0.32249	0.271335
12.8171	12.6732	0.322013	0.27299
12.8176	12.6736	0.31981	0.273312
12.818	12.6741	0.319904	0.272099
12.8185	12.6746	0.322651	0.275444
12.819	12.6751	0.318409	0.274306
12.8194	12.6755	0.321641	0.277319
12.8199	12.676	0.322352	0.278557
12.8204	12.6765	0.318267	0.274577
12.8209	12.677	0.320389	0.275574
12.8213	12.6775	0.321005	0.277927
12.8218	12.6779	0.322124	0.279653
12.8223	12.6784	0.320722	0.278001
12.8227	12.6789	0.321428	0.27543
12.8232	12.6793	0.321275	0.273805
12.8237	12.6798	0.32102	0.274703
12.8242	12.6803	0.321142	0.273855
12.8246	12.6808	0.321026	0.270763
12.8251	12.6812	0.318982	0.266068
12.8256	12.6817	0.320949	0.265382
12.8261	12.6822	0.320881	0.263812
12.8265	12.6826	0.31918	0.262118
12.827	12.6831	0.319492	0.258859
12.8275	12.6836	0.320095	0.255249
12.8279	12.684	0.320941	0.252778
12.8284	12.6845	0.319346	0.250424
12.8289	12.685	0.31981	0.250131
12.8294	12.6855	0.322598	0.246766
12.8298	12.686	0.321285	0.240262
12.8303	12.6864	0.322089	0.237861
12.8308	12.6869	0.321965	0.236319
12.8312	12.6874	0.32105	0.233973
12.8317	12.6879	0.321897	0.229418
12.8322	12.6884	0.321629	0.224986
12.8327	12.6888	0.321562	0.223357
12.8331	12.6893	0.321374	0.222618
12.8336	12.6897	0.322001	0.222457
12.8341	12.6902	0.319843	0.221361
12.8346	12.6907	0.319516	0.221078
12.835	12.6912	0.323586	0.226383
12.8355	12.6916	0.324954	0.231421
12.836	12.6921	0.322898	0.235148
12.8364	12.6926	0.320744	0.238592
12.8369	12.693	0.323017	0.241554
12.8374	12.6935	0.322092	0.245278
12.8379	12.694	0.320794	0.250369
12.8383	12.6944	0.322082	0.257292
12.8388	12.6949	0.323556	0.259479
12.8393	12.6954	0.320837	0.257876
12.8397	12.6959	0.321086	0.259635
12.8402	12.6963	0.321806	0.261989
12.8407	12.6968	0.321263	0.262345
12.8412	12.6973	0.32045	0.26065
12.8416	12.6978	0.321031	0.258146
12.8421	12.6982	0.323016	0.255321
12.8426	12.6987	0.320726	0.253605
12.8431	12.6991	0.322507	0.251411
12.8435	12.6996	0.322265	0.247195
12.844	12.7001	0.321264	0.241447
12.8445	12.7005	0.32232	0.238516
12.8449	12.701	0.32273	0.235155
12.8454	12.7015	0.323579	0.233611
12.8459	12.702	0.320498	0.228455
12.8464	12.7024	0.323305	0.227746
12.8468	12.7029	0.323216	0.225762
12.8473	12.7034	0.321565	0.227694
12.8478	12.7038	0.321928	0.229641
12.8482	12.7043	0.323263	0.232108
12.8487	12.7048	0.319712	0.235433
12.8492	12.7053	0.322868	0.242385
12.8497	12.7058	0.327124	0.252719
12.8501	12.7063	0.323002	0.262001
12.8506	12.7067	0.324156	0.270335
12.8511	12.7072	0.325133	0.280724
12.8516	12.7077	0.326562	0.29375
12.852	12.7082	0.324084	0.306316
12.8525	12.7086	0.325579	0.321685
12.853	12.7091	0.325536	0.33321
12.8534	12.7096	0.325475	0.345053
12.8539	12.71	0.327347	0.359904
12.8544	12.7105	0.325965	0.374458
12.8549	12.711	0.325104	0.389061
12.8553	12.7115	0.326125	0.400562
12.8558	12.7119	0.328252	0.411083
12.8563	12.7124	0.32697	0.421274
12.8567	12.7129	0.326187	0.433519
12.8572	12.7133	0.326152	0.444204
12.8577	12.7138	0.328101	0.453497
12.8582	12.7143	0.327602	0.457997
12.8586	12.7147	0.32604	0.464998
12.8591	12.7152	0.327377	0.475801
12.8596	12.7157	0.327009	0.488065
12.8601	12.7162	0.326195	0.493487
12.8605	12.7167	0.326862	0.50302
12.861	12.7171	0.328435	0.511562
12.8615	12.7176	0.327908	0.516671
12.8619	12.7181	0.327303	0.52231
12.8624	12.7186	0.329716	0.52134
12.8629	12.719	0.326753	0.516643
12.8634	12.7195	0.326262	0.512788
12.8638	12.7199	0.327557	0.510604
12.8643	12.7204	0.327141	0.511403
12.8648	12.7209	0.326902	0.504211
12.8652	12.7214	0.328434	0.509737
12.8657	12.7218	0.327764	0.518149
12.8662	12.7223	0.325835	0.53077
12.8667	12.7227	0.325539	0.560617
12.8671	12.7232	0.327283	0.595604
12.8676	12.7237	0.325031	0.632843
12.8681	12.7242	0.324251	0.68269
12.8686	12.7246	0.323991	0.744252
12.869	12.7251	0.322923	0.792894
12.8695	12.7256	0.321404	0.82426
12.87	12.7261	0.324672	0.8639
12.8704	12.7265	0.32695	0.893512
12.8709	12.727	0.325499	0.908869
12.8714	12.7275	0.327844	0.930264
12.8719	12.728	0.329785	0.943812
12.8723	12.7284	0.328439	0.944414
12.8728	12.7289	0.326977	0.949812
12.8733	12.7294	0.3293	0.960002
12.8737	12.7298	0.325904	0.962715
12.8742	12.7303	0.327925	0.96132
12.8747	12.7308	0.32884	0.970453
12.8752	12.7313	0.327838	0.971874
12.8756	12.7317	0.326984	0.972428
12.8761	12.7322	0.328809	0.981952
12.8766	12.7327	0.329027	0.983194
12.8771	12.7331	0.329757	0.983307
12.8775	12.7336	0.328634	0.98604
12.878	12.7341	0.329806	0.990195
12.8785	12.7346	0.329539	0.993096
12.8789	12.735	0.327472	0.986998
12.8794	12.7355	0.330621	0.990558
12.8799	12.736	0.331044	0.996947
12.8804	12.7365	0.329004	0.992148
12.8808	12.737	0.328248	0.996713
12.8813	12.7375	0.330747	0.999497
12.8818	12.7379	0.332963	0.999013
12.8822	12.7384	0.329879	0.995497
12.8827	12.7389	0.330717	1.00159
12.8832	12.7393	0.331841	1.00752
12.8837	12.7398	0.331302	1.00482
12.8841	12.7403	0.333096	1.0058
12.8846	12.7407	0.333221	1.0065
12.8851	12.7412	0.332347	1.00526
12.8856	12.7417	0.332578	1.0119
12.886	12.7422	0.332289	1.00931
12.8865	12.7426	0.332796	1.00747
12.887	12.7431	0.331465	1.00646
12.8874	12.7436	0.333698	1.01256
12.8879	12.744	0.332518	1.01473
12.8884	12.7445	0.331317	1.00748
12.8889	12.745	0.334664	1.01446
12.8893	12.7455	0.333977	1.01573
12.8898	12.7459	0.333273	1.01439
12.8903	12.7464	0.333967	1.01863
12.8907	12.7469	0.334245	1.01826
12.8912	12.7474	0.335557	1.01633
12.8917	12.7478	0.332929	1.01528
12.8922	12.7483	0.334342	1.02043
12.8926	12.7488	0.334401	1.02096
12.8931	12.7492	0.331304	1.01477
12.8936	12.7497	0.336097	1.01989
12.8941	12.7502	0.33425	1.02076
12.8945	12.7506	0.333384	1.01925
12.895	12.7511	0.33385	1.01742
12.8955	12.7516	0.335656	1.02223
12.8959	12.7521	0.335826	1.01961
12.8964	12.7525	0.335112	1.01854
12.8969	12.753	0.335435	1.02524
12.8974	12.7534	0.335288	1.0224
12.8978	12.7539	0.333953	1.0205
12.8983	12.7544	0.337339	1.02768
12.8988	12.7549	0.335532	1.02629
