# 1304     AichiSR QXAFS
# Start     : 8.9544
# End       : 9.0544
# Dir       : Backward
# Points    : 300
# ScanTime  : 1.01549
# Date      : 13.04.23 22:32
# Ring Cur. : 25.6[mA]
12.7557	12.6118	0.310325	0.234365
12.7562	12.6123	0.307375	0.236311
12.7566	12.6128	0.309239	0.238253
12.7571	12.6132	0.308677	0.23879
12.7576	12.6137	0.306922	0.235732
12.7581	12.6142	0.309871	0.238463
12.7585	12.6146	0.311748	0.241163
12.759	12.6151	0.310223	0.242003
12.7595	12.6156	0.308507	0.241399
12.7599	12.6161	0.310904	0.241209
12.7604	12.6165	0.313346	0.241976
12.7609	12.617	0.310597	0.241531
12.7614	12.6175	0.311124	0.242962
12.7618	12.618	0.31246	0.243184
12.7623	12.6184	0.30899	0.240217
12.7628	12.6189	0.313539	0.242158
12.7632	12.6194	0.311679	0.242759
12.7637	12.6198	0.309934	0.243965
12.7642	12.6203	0.31056	0.241981
12.7647	12.6208	0.310255	0.241107
12.7651	12.6213	0.311861	0.242399
12.7656	12.6218	0.308318	0.242896
12.7661	12.6222	0.311656	0.244928
12.7666	12.6227	0.309474	0.243956
12.767	12.6231	0.31057	0.24322
12.7675	12.6236	0.311166	0.244977
12.768	12.6241	0.311706	0.245513
12.7684	12.6246	0.310252	0.247641
12.7689	12.6251	0.309548	0.247261
12.7694	12.6255	0.312183	0.247971
12.7699	12.626	0.312137	0.248415
12.7703	12.6265	0.311229	0.248441
12.7708	12.627	0.310284	0.249018
12.7713	12.6274	0.310429	0.250524
12.7717	12.6279	0.309959	0.247747
12.7722	12.6284	0.311277	0.249131
12.7727	12.6289	0.311357	0.249768
12.7732	12.6293	0.312142	0.251193
12.7736	12.6298	0.311076	0.24939
12.7741	12.6303	0.310505	0.247683
12.7746	12.6307	0.313317	0.248125
12.7751	12.6312	0.310324	0.249641
12.7755	12.6317	0.311063	0.250304
12.776	12.6321	0.311785	0.2479
12.7765	12.6326	0.311042	0.246379
12.7769	12.6331	0.312812	0.248654
12.7774	12.6335	0.312712	0.249379
12.7779	12.634	0.311757	0.24949
12.7784	12.6345	0.310642	0.248299
12.7788	12.635	0.31192	0.249403
12.7793	12.6354	0.314402	0.25017
12.7798	12.6359	0.312574	0.251075
12.7802	12.6364	0.312137	0.252677
12.7807	12.6369	0.312563	0.2525
12.7812	12.6373	0.31001	0.249085
12.7817	12.6378	0.313773	0.252153
12.7821	12.6383	0.312454	0.25388
12.7826	12.6388	0.311353	0.255699
12.7831	12.6392	0.309935	0.253246
12.7836	12.6397	0.31257	0.253213
12.784	12.6401	0.31595	0.257032
12.7845	12.6406	0.316054	0.259141
12.785	12.6411	0.312807	0.256713
12.7854	12.6416	0.312058	0.255519
12.7859	12.642	0.312024	0.254622
12.7864	12.6425	0.314661	0.255385
12.7869	12.6429	0.314704	0.256226
12.7873	12.6434	0.311288	0.254933
12.7878	12.6439	0.310635	0.252749
12.7883	12.6444	0.312288	0.252635
12.7887	12.6448	0.312349	0.251619
12.7892	12.6453	0.311196	0.251488
12.7897	12.6458	0.312229	0.252178
12.7902	12.6463	0.311204	0.24899
12.7906	12.6468	0.311563	0.2478
12.7911	12.6472	0.313527	0.248405
12.7916	12.6477	0.313664	0.249262
12.7921	12.6482	0.311729	0.247159
12.7925	12.6487	0.311141	0.244136
12.793	12.6491	0.314837	0.242699
12.7935	12.6496	0.317326	0.240576
12.7939	12.6501	0.315136	0.240499
12.7944	12.6505	0.315783	0.239323
12.7949	12.651	0.314565	0.236185
12.7954	12.6515	0.31469	0.233365
12.7958	12.652	0.317602	0.233911
12.7963	12.6524	0.319033	0.232832
12.7968	12.6529	0.316541	0.23002
12.7972	12.6534	0.315527	0.228016
12.7977	12.6538	0.31832	0.225669
12.7982	12.6543	0.318648	0.225792
12.7987	12.6548	0.320094	0.225363
12.7991	12.6553	0.319824	0.224411
12.7996	12.6558	0.31776	0.221303
12.8001	12.6562	0.317949	0.219861
12.8006	12.6567	0.319727	0.220458
12.801	12.6572	0.320015	0.221159
12.8015	12.6577	0.318048	0.22059
12.802	12.6581	0.31719	0.219057
12.8024	12.6586	0.318149	0.219287
12.8029	12.6591	0.320372	0.220509
12.8034	12.6595	0.31915	0.224066
12.8039	12.66	0.318256	0.22325
12.8043	12.6605	0.320985	0.224033
12.8048	12.661	0.320494	0.223756
12.8053	12.6614	0.322728	0.227829
12.8057	12.6619	0.323	0.231552
12.8062	12.6624	0.32124	0.232524
12.8067	12.6628	0.320685	0.23254
12.8072	12.6633	0.322147	0.234478
12.8076	12.6637	0.325302	0.237508
12.8081	12.6642	0.322796	0.238125
12.8086	12.6647	0.322414	0.241052
12.8091	12.6652	0.3228	0.242745
12.8095	12.6656	0.321739	0.24278
12.81	12.6661	0.324601	0.24543
12.8105	12.6666	0.324968	0.250252
12.8109	12.6671	0.321798	0.251164
12.8114	12.6676	0.322194	0.251291
12.8119	12.668	0.325455	0.253819
12.8124	12.6685	0.323767	0.256366
12.8128	12.669	0.324347	0.25906
12.8133	12.6694	0.3252	0.263563
12.8138	12.6699	0.325134	0.262095
12.8142	12.6703	0.323997	0.263995
12.8147	12.6708	0.326804	0.267752
12.8152	12.6713	0.326886	0.271884
12.8157	12.6718	0.324019	0.271429
12.8161	12.6722	0.324509	0.272274
12.8166	12.6727	0.326085	0.273427
12.8171	12.6732	0.324782	0.275019
12.8176	12.6736	0.326503	0.277621
12.818	12.6741	0.325885	0.278672
12.8185	12.6746	0.325596	0.278148
12.819	12.6751	0.32603	0.277887
12.8194	12.6755	0.326963	0.280641
12.8199	12.676	0.326723	0.283063
12.8204	12.6765	0.325246	0.282468
12.8209	12.677	0.32397	0.280054
12.8213	12.6775	0.326781	0.280653
12.8218	12.678	0.325727	0.281809
12.8223	12.6784	0.326572	0.282524
12.8227	12.6789	0.325002	0.281324
12.8232	12.6794	0.326397	0.278678
12.8237	12.6798	0.3264	0.276846
12.8242	12.6803	0.326607	0.277737
12.8246	12.6808	0.328326	0.277022
12.8251	12.6812	0.326194	0.273851
12.8256	12.6817	0.327348	0.269447
12.8261	12.6822	0.329123	0.26827
12.8265	12.6827	0.327864	0.266718
12.827	12.6831	0.327928	0.264009
12.8275	12.6836	0.326296	0.26198
12.8279	12.6841	0.326756	0.258005
12.8284	12.6845	0.328539	0.255295
12.8289	12.685	0.327125	0.253257
12.8294	12.6855	0.328103	0.250692
12.8298	12.686	0.328813	0.248721
12.8303	12.6865	0.328161	0.242149
12.8308	12.6869	0.329395	0.239366
12.8312	12.6874	0.327725	0.238141
12.8317	12.6879	0.328826	0.235187
12.8322	12.6884	0.329483	0.23226
12.8327	12.6888	0.327852	0.227896
12.8331	12.6893	0.329659	0.226063
12.8336	12.6897	0.3308	0.227151
12.8341	12.6902	0.331122	0.229219
12.8346	12.6907	0.329266	0.229898
12.835	12.6912	0.328701	0.230047
12.8355	12.6916	0.330862	0.233669
12.836	12.6921	0.329765	0.238417
12.8364	12.6926	0.33057	0.245623
12.8369	12.693	0.3294	0.249452
12.8374	12.6935	0.329514	0.252327
12.8379	12.694	0.329472	0.255318
12.8383	12.6944	0.330976	0.261625
12.8388	12.6949	0.331922	0.266864
12.8393	12.6954	0.32913	0.267163
12.8397	12.6959	0.329468	0.265101
12.8402	12.6963	0.332409	0.267569
12.8407	12.6968	0.331408	0.267774
12.8412	12.6973	0.32919	0.267175
12.8416	12.6978	0.329393	0.266777
12.8421	12.6982	0.329866	0.262873
12.8426	12.6987	0.328149	0.257183
12.8431	12.6992	0.33036	0.255842
12.8435	12.6996	0.330669	0.253437
12.844	12.7001	0.32933	0.249192
12.8445	12.7006	0.328104	0.242656
12.8449	12.701	0.330107	0.240754
12.8454	12.7015	0.329593	0.237409
12.8459	12.702	0.329714	0.235572
12.8464	12.7025	0.329759	0.234898
12.8468	12.7029	0.328616	0.231199
12.8473	12.7034	0.329892	0.23179
12.8478	12.7039	0.330728	0.235418
12.8482	12.7043	0.331035	0.239697
12.8487	12.7048	0.330249	0.242676
12.8492	12.7053	0.328457	0.246889
12.8497	12.7058	0.332929	0.257112
12.8501	12.7063	0.330958	0.266111
12.8506	12.7067	0.329664	0.276679
12.8511	12.7072	0.331348	0.288457
12.8516	12.7077	0.331762	0.2984
12.852	12.7082	0.331414	0.312221
12.8525	12.7086	0.330646	0.326394
12.853	12.7091	0.332088	0.341899
12.8534	12.7096	0.331331	0.356451
12.8539	12.71	0.33058	0.364821
12.8544	12.7105	0.333849	0.380938
12.8549	12.711	0.333123	0.395576
12.8553	12.7115	0.331756	0.408685
12.8558	12.7119	0.332528	0.421374
12.8563	12.7124	0.331597	0.429407
12.8567	12.7129	0.333793	0.438346
12.8572	12.7133	0.331662	0.449913
12.8577	12.7138	0.333392	0.460498
12.8582	12.7143	0.332571	0.466176
12.8586	12.7148	0.331603	0.471833
12.8591	12.7152	0.332157	0.48171
12.8596	12.7157	0.330626	0.491729
12.8601	12.7162	0.331402	0.502597
12.8605	12.7167	0.330399	0.508758
12.861	12.7171	0.330799	0.518946
12.8615	12.7176	0.331824	0.522358
12.8619	12.7181	0.331383	0.529721
12.8624	12.7186	0.332097	0.531863
12.8629	12.719	0.330639	0.524661
12.8634	12.7195	0.330138	0.52187
12.8638	12.7199	0.331294	0.516354
12.8643	12.7204	0.330706	0.512356
12.8648	12.7209	0.331079	0.5125
12.8652	12.7214	0.330257	0.516587
12.8657	12.7218	0.329568	0.520367
12.8662	12.7223	0.330344	0.536225
12.8667	12.7228	0.329263	0.567306
12.8671	12.7232	0.328952	0.603828
12.8676	12.7237	0.327717	0.645778
12.8681	12.7242	0.328172	0.698357
12.8686	12.7246	0.328411	0.752727
12.869	12.7251	0.325729	0.800889
12.8695	12.7256	0.325452	0.841089
12.87	12.7261	0.327579	0.877369
12.8704	12.7265	0.328247	0.904551
12.8709	12.727	0.328712	0.915439
12.8714	12.7275	0.328488	0.931098
12.8719	12.728	0.331258	0.950022
12.8723	12.7284	0.328956	0.951013
12.8728	12.7289	0.328098	0.952633
12.8733	12.7294	0.331118	0.963617
12.8737	12.7298	0.331272	0.966955
12.8742	12.7303	0.32906	0.970711
12.8747	12.7308	0.330993	0.977276
12.8752	12.7313	0.331863	0.981113
12.8756	12.7318	0.331533	0.979496
12.8761	12.7322	0.330463	0.985985
12.8766	12.7327	0.332358	0.990642
12.8771	12.7332	0.330581	0.98888
12.8775	12.7336	0.331824	0.991116
12.878	12.7341	0.333077	0.993538
12.8785	12.7346	0.331166	0.992382
12.8789	12.7351	0.327702	0.992985
12.8794	12.7355	0.330298	0.9975
12.8799	12.736	0.332537	0.99878
12.8804	12.7365	0.329413	0.996385
12.8808	12.737	0.329693	0.996733
12.8813	12.7375	0.332085	1.00853
12.8818	12.7379	0.332165	1.00631
12.8822	12.7384	0.331554	0.998898
12.8827	12.7389	0.333193	1.00735
12.8832	12.7393	0.333482	1.00818
12.8837	12.7398	0.331279	1.00834
12.8841	12.7403	0.332195	1.00863
12.8846	12.7407	0.333624	1.0082
12.8851	12.7412	0.331467	1.00631
12.8856	12.7417	0.332232	1.00913
12.886	12.7422	0.334366	1.01673
12.8865	12.7426	0.332557	1.00927
12.887	12.7431	0.332182	1.00724
12.8874	12.7436	0.334892	1.01352
12.8879	12.744	0.33226	1.01385
12.8884	12.7445	0.331629	1.01046
12.8889	12.745	0.333722	1.01715
12.8893	12.7455	0.33358	1.01476
12.8898	12.7459	0.333742	1.01335
12.8903	12.7464	0.335158	1.01768
12.8907	12.7469	0.334163	1.02161
12.8912	12.7474	0.333523	1.01683
12.8917	12.7478	0.333888	1.01723
12.8922	12.7483	0.33681	1.02323
12.8926	12.7488	0.335341	1.02068
12.8931	12.7492	0.33326	1.01844
12.8936	12.7497	0.332703	1.01864
12.8941	12.7502	0.335047	1.01868
12.8945	12.7506	0.3342	1.01833
12.895	12.7511	0.335332	1.02049
12.8955	12.7516	0.336	1.02646
12.8959	12.7521	0.334427	1.01802
12.8964	12.7525	0.334237	1.02099
12.8969	12.753	0.336784	1.02478
12.8974	12.7534	0.335385	1.02288
12.8978	12.7539	0.332991	1.0201
12.8983	12.7544	0.333404	1.01985
12.8988	12.7549	0.335045	1.02345
