# 1304     AichiSR QXAFS
# Start     : 8.9544
# End       : 9.0544
# Dir       : Forward
# Points    : 300
# ScanTime  : 1.01549
# Date      : 13.04.23 22:30
# Ring Cur. : 25.7[mA]
12.7557	12.7558	0.397841	1.21355
12.7562	12.7553	0.400171	1.21566
12.7566	12.7548	0.398416	1.21816
12.7571	12.7543	0.397705	1.22066
12.7576	12.7539	0.400212	1.21894
12.7581	12.7534	0.398615	1.21506
12.7585	12.7529	0.399999	1.21504
12.759	12.7525	0.398866	1.21699
12.7595	12.752	0.399569	1.2232
12.7599	12.7516	0.399172	1.21852
12.7604	12.7511	0.401531	1.21661
12.7609	12.7506	0.400144	1.22125
12.7614	12.7501	0.401627	1.2193
12.7618	12.7497	0.401159	1.22452
12.7623	12.7492	0.400812	1.21859
12.7628	12.7487	0.399553	1.21656
12.7632	12.7483	0.400293	1.21851
12.7637	12.7478	0.401012	1.22082
12.7642	12.7473	0.400128	1.2212
12.7647	12.7469	0.400099	1.22059
12.7651	12.7464	0.401666	1.21639
12.7656	12.7459	0.401507	1.21715
12.7661	12.7454	0.400962	1.2201
12.7666	12.7449	0.400857	1.22183
12.767	12.7445	0.401628	1.22013
12.7675	12.744	0.400292	1.21538
12.768	12.7435	0.401552	1.21581
12.7684	12.7431	0.402865	1.21859
12.7689	12.7426	0.400427	1.21993
12.7694	12.7421	0.400107	1.2156
12.7699	12.7417	0.401167	1.21613
12.7703	12.7412	0.402731	1.21689
12.7708	12.7407	0.401415	1.21971
12.7713	12.7402	0.400821	1.21708
12.7717	12.7398	0.400293	1.21377
12.7722	12.7393	0.401761	1.21228
12.7727	12.7388	0.40239	1.2129
12.7732	12.7384	0.402205	1.21784
12.7736	12.7379	0.400726	1.21577
12.7741	12.7374	0.402349	1.21405
12.7746	12.7369	0.402047	1.21071
12.7751	12.7365	0.402703	1.20936
12.7755	12.736	0.402609	1.21096
12.776	12.7355	0.400687	1.21188
12.7765	12.735	0.401295	1.20896
12.7769	12.7345	0.401674	1.20332
12.7774	12.7341	0.402107	1.20263
12.7779	12.7336	0.402021	1.20346
12.7784	12.7331	0.400771	1.20353
12.7788	12.7326	0.401188	1.1993
12.7793	12.7322	0.402166	1.19672
12.7798	12.7317	0.401823	1.19231
12.7802	12.7312	0.401192	1.19342
12.7807	12.7308	0.400879	1.19403
12.7812	12.7303	0.40158	1.18402
12.7817	12.7298	0.400363	1.18142
12.7821	12.7293	0.400908	1.17806
12.7826	12.7289	0.401362	1.17637
12.7831	12.7284	0.398763	1.17018
12.7836	12.7279	0.400865	1.15741
12.784	12.7275	0.400206	1.14867
12.7845	12.727	0.401484	1.13472
12.785	12.7265	0.399514	1.12284
12.7854	12.726	0.398714	1.10404
12.7859	12.7256	0.39589	1.06752
12.7864	12.7251	0.395227	1.0284
12.7869	12.7246	0.395678	0.983815
12.7873	12.7241	0.395111	0.931926
12.7878	12.7237	0.395204	0.870536
12.7883	12.7232	0.3979	0.806691
12.7887	12.7227	0.400797	0.747826
12.7892	12.7223	0.40036	0.699399
12.7897	12.7218	0.402272	0.665452
12.7902	12.7213	0.402269	0.644632
12.7906	12.7209	0.400277	0.627196
12.7911	12.7204	0.401512	0.619162
12.7916	12.7199	0.40127	0.621135
12.7921	12.7195	0.4004	0.623229
12.7925	12.719	0.39967	0.629602
12.793	12.7185	0.400808	0.632346
12.7935	12.7181	0.400572	0.635519
12.7939	12.7176	0.399918	0.635501
12.7944	12.7171	0.400381	0.636129
12.7949	12.7166	0.399042	0.630793
12.7954	12.7162	0.401987	0.620828
12.7958	12.7157	0.400633	0.606317
12.7963	12.7152	0.401835	0.597176
12.7968	12.7147	0.402277	0.58668
12.7972	12.7142	0.39994	0.57628
12.7977	12.7138	0.400257	0.564611
12.7982	12.7133	0.401157	0.552085
12.7987	12.7128	0.400883	0.542227
12.7991	12.7124	0.40072	0.534296
12.7996	12.7119	0.401073	0.522033
12.8001	12.7114	0.398871	0.508422
12.8006	12.711	0.401948	0.493554
12.801	12.7105	0.401124	0.479697
12.8015	12.71	0.39997	0.46466
12.802	12.7095	0.401139	0.450097
12.8024	12.7091	0.40165	0.430359
12.8029	12.7086	0.401303	0.412029
12.8034	12.7081	0.400356	0.395522
12.8039	12.7077	0.401493	0.382757
12.8043	12.7072	0.400302	0.367931
12.8048	12.7067	0.400829	0.348505
12.8053	12.7062	0.401172	0.335757
12.8057	12.7057	0.400945	0.32341
12.8062	12.7053	0.402644	0.314864
12.8067	12.7048	0.400446	0.304122
12.8072	12.7043	0.399689	0.295315
12.8076	12.7038	0.401495	0.289278
12.8081	12.7033	0.401308	0.284594
12.8086	12.7029	0.401524	0.283457
12.8091	12.7024	0.400208	0.28143
12.8095	12.702	0.400645	0.281695
12.81	12.7015	0.401713	0.282324
12.8105	12.701	0.400109	0.288255
12.8109	12.7005	0.401428	0.292625
12.8114	12.7001	0.400633	0.295089
12.8119	12.6996	0.399694	0.299226
12.8124	12.6991	0.402071	0.303505
12.8128	12.6987	0.400045	0.309157
12.8133	12.6982	0.40056	0.314154
12.8138	12.6977	0.398535	0.318175
12.8142	12.6973	0.399165	0.317701
12.8147	12.6968	0.400348	0.320681
12.8152	12.6963	0.400144	0.322694
12.8157	12.6958	0.401184	0.325315
12.8161	12.6954	0.398115	0.326133
12.8166	12.6949	0.399809	0.32239
12.8171	12.6944	0.39881	0.319698
12.8176	12.6939	0.398416	0.317354
12.818	12.6935	0.398871	0.313301
12.8185	12.693	0.40023	0.307927
12.819	12.6925	0.39809	0.299983
12.8194	12.6921	0.398031	0.295556
12.8199	12.6916	0.398727	0.289847
12.8204	12.6911	0.398423	0.285017
12.8209	12.6907	0.399064	0.279968
12.8213	12.6902	0.399447	0.276813
12.8218	12.6897	0.398866	0.274188
12.8223	12.6893	0.397335	0.273828
12.8227	12.6888	0.398185	0.274881
12.8232	12.6883	0.396289	0.276547
12.8237	12.6879	0.397109	0.277643
12.8242	12.6874	0.396726	0.280696
12.8246	12.6869	0.397059	0.285535
12.8251	12.6864	0.39684	0.289597
12.8256	12.6859	0.394885	0.294082
12.8261	12.6855	0.396038	0.296406
12.8265	12.685	0.398201	0.299901
12.827	12.6845	0.397286	0.304302
12.8275	12.684	0.393774	0.309261
12.8279	12.6836	0.395595	0.312142
12.8284	12.6831	0.395565	0.312773
12.8289	12.6826	0.396397	0.31713
12.8294	12.6822	0.395892	0.319555
12.8298	12.6817	0.396735	0.325276
12.8303	12.6812	0.395959	0.327242
12.8308	12.6807	0.397937	0.328772
12.8312	12.6803	0.399039	0.331712
12.8317	12.6798	0.395614	0.335344
12.8322	12.6793	0.39641	0.338052
12.8327	12.6789	0.396099	0.341365
12.8331	12.6784	0.395502	0.338819
12.8336	12.6779	0.397776	0.34073
12.8341	12.6774	0.399042	0.342509
12.8346	12.677	0.396923	0.343563
12.835	12.6765	0.39641	0.343167
12.8355	12.676	0.39501	0.341118
12.836	12.6755	0.396874	0.34076
12.8364	12.675	0.394975	0.339748
12.8369	12.6746	0.396599	0.339723
12.8374	12.6741	0.396516	0.339288
12.8379	12.6736	0.397123	0.336953
12.8383	12.6731	0.398691	0.338033
12.8388	12.6727	0.398206	0.335337
12.8393	12.6722	0.395828	0.33537
12.8397	12.6717	0.395889	0.331526
12.8402	12.6713	0.396403	0.328823
12.8407	12.6708	0.397327	0.327744
12.8412	12.6703	0.39663	0.326236
12.8416	12.6699	0.395401	0.324007
12.8421	12.6694	0.396357	0.321267
12.8426	12.6689	0.395555	0.31859
12.8431	12.6685	0.396656	0.316715
12.8435	12.668	0.397006	0.314296
12.844	12.6675	0.395765	0.312964
12.8445	12.6671	0.39648	0.309784
12.8449	12.6666	0.395237	0.30354
12.8454	12.6661	0.396195	0.302957
12.8459	12.6656	0.394907	0.301599
12.8464	12.6651	0.394674	0.299758
12.8468	12.6647	0.394596	0.297195
12.8473	12.6642	0.393853	0.293167
12.8478	12.6637	0.396789	0.291534
12.8482	12.6633	0.395001	0.290471
12.8487	12.6628	0.397011	0.290154
12.8492	12.6623	0.39524	0.286463
12.8497	12.6619	0.394516	0.282638
12.8501	12.6614	0.396352	0.281924
12.8506	12.6609	0.395308	0.280412
12.8511	12.6604	0.393964	0.278806
12.8516	12.66	0.393656	0.277211
12.852	12.6595	0.393106	0.272668
12.8525	12.6591	0.394205	0.272483
12.853	12.6586	0.392924	0.272623
12.8534	12.6581	0.392524	0.272297
12.8539	12.6576	0.392436	0.269694
12.8544	12.6572	0.392938	0.270545
12.8549	12.6567	0.396101	0.269598
12.8553	12.6562	0.393479	0.271105
12.8558	12.6557	0.391007	0.272195
12.8563	12.6552	0.391255	0.27315
12.8567	12.6548	0.393375	0.272468
12.8572	12.6543	0.394186	0.274889
12.8577	12.6538	0.393023	0.277422
12.8582	12.6533	0.392736	0.281179
12.8586	12.6529	0.39272	0.282221
12.8591	12.6524	0.394142	0.28374
12.8596	12.652	0.395181	0.285799
12.8601	12.6515	0.393184	0.289246
12.8605	12.651	0.39268	0.290479
12.861	12.6505	0.393205	0.292106
12.8615	12.65	0.391872	0.292483
12.8619	12.6496	0.392685	0.296171
12.8624	12.6491	0.392662	0.300102
12.8629	12.6486	0.391876	0.30298
12.8634	12.6482	0.392292	0.304131
12.8638	12.6477	0.391616	0.303963
12.8643	12.6472	0.391912	0.306933
12.8648	12.6467	0.390067	0.309313
12.8652	12.6463	0.388375	0.310336
12.8657	12.6458	0.388926	0.310523
12.8662	12.6453	0.388203	0.310544
12.8667	12.6448	0.388507	0.31142
12.8671	12.6443	0.388157	0.313894
12.8676	12.6439	0.387191	0.314546
12.8681	12.6434	0.389006	0.315748
12.8686	12.6429	0.390576	0.315213
12.869	12.6425	0.390033	0.317354
12.8695	12.642	0.389296	0.31812
12.87	12.6415	0.38995	0.319334
12.8704	12.6411	0.391531	0.31755
12.8709	12.6406	0.390058	0.317629
12.8714	12.6401	0.389874	0.317866
12.8719	12.6397	0.391463	0.318186
12.8723	12.6392	0.389159	0.318362
12.8728	12.6387	0.388979	0.3146
12.8733	12.6383	0.389552	0.315865
12.8737	12.6378	0.390157	0.316255
12.8742	12.6373	0.389941	0.315533
12.8747	12.6368	0.387946	0.314004
12.8752	12.6364	0.388073	0.313154
12.8756	12.6359	0.389668	0.311876
12.8761	12.6354	0.389443	0.310295
12.8766	12.6349	0.387771	0.310053
12.8771	12.6345	0.38722	0.310716
12.8775	12.634	0.386338	0.3091
12.878	12.6335	0.388814	0.30783
12.8785	12.6331	0.389173	0.308132
12.8789	12.6326	0.387467	0.309813
12.8794	12.6321	0.386412	0.309834
12.8799	12.6317	0.387546	0.309272
12.8804	12.6312	0.38711	0.307817
12.8808	12.6307	0.389403	0.309426
12.8813	12.6302	0.387212	0.30981
12.8818	12.6298	0.386067	0.310677
12.8822	12.6293	0.385973	0.307703
12.8827	12.6288	0.386488	0.307501
12.8832	12.6284	0.389427	0.30901
12.8837	12.6279	0.385285	0.31015
12.8841	12.6274	0.38504	0.308781
12.8846	12.6269	0.384767	0.308138
12.8851	12.6265	0.387192	0.3072
12.8856	12.626	0.387536	0.30704
12.886	12.6255	0.385842	0.308629
12.8865	12.625	0.385592	0.307129
12.887	12.6245	0.385466	0.304988
12.8874	12.6241	0.385311	0.304409
12.8879	12.6236	0.390309	0.307871
12.8884	12.6231	0.389256	0.306333
12.8889	12.6226	0.384547	0.304448
12.8893	12.6222	0.386447	0.301063
12.8898	12.6217	0.38701	0.299585
12.8903	12.6212	0.385739	0.301229
12.8907	12.6208	0.386028	0.301458
12.8912	12.6203	0.383981	0.300005
12.8917	12.6198	0.385025	0.298766
12.8922	12.6193	0.384627	0.29896
12.8926	12.6189	0.385369	0.299035
12.8931	12.6184	0.384379	0.299504
12.8936	12.6179	0.383327	0.299484
12.8941	12.6175	0.384435	0.29863
12.8945	12.617	0.385573	0.297589
12.895	12.6165	0.385246	0.29782
12.8955	12.616	0.384359	0.30004
12.8959	12.6156	0.384084	0.298643
12.8964	12.6151	0.383659	0.29745
12.8969	12.6146	0.384323	0.296917
12.8974	12.6141	0.38412	0.296355
12.8978	12.6137	0.385758	0.298613
12.8983	12.6132	0.382768	0.297822
12.8988	12.6127	0.384758	0.295912
