# 1304     AichiSR QXAFS
# Start     : 8.9544
# End       : 9.0544
# Dir       : Backward
# Points    : 300
# ScanTime  : 1.01549
# Date      : 13.04.23 22:30
# Ring Cur. : 25.6[mA]
12.7557	12.6118	0.300524	0.23023
12.7562	12.6123	0.300545	0.228055
12.7566	12.6127	0.301119	0.230316
12.7571	12.6132	0.302158	0.234221
12.7576	12.6137	0.30011	0.232774
12.7581	12.6141	0.30154	0.23283
12.7585	12.6146	0.304889	0.234817
12.759	12.6151	0.301503	0.233709
12.7595	12.6156	0.301886	0.236136
12.7599	12.616	0.304575	0.23892
12.7604	12.6165	0.304268	0.235661
12.7609	12.617	0.303806	0.235651
12.7614	12.6175	0.304074	0.236486
12.7618	12.618	0.305392	0.239303
12.7623	12.6184	0.301939	0.236656
12.7628	12.6189	0.302902	0.235428
12.7632	12.6194	0.304969	0.236443
12.7637	12.6198	0.304053	0.237067
12.7642	12.6203	0.302888	0.236731
12.7647	12.6208	0.303755	0.238732
12.7651	12.6213	0.304742	0.236989
12.7656	12.6217	0.303409	0.236863
12.7661	12.6222	0.304314	0.238618
12.7666	12.6227	0.304277	0.23981
12.767	12.6231	0.303669	0.240629
12.7675	12.6236	0.304627	0.240029
12.768	12.6241	0.307094	0.241412
12.7684	12.6245	0.304359	0.239684
12.7689	12.625	0.303208	0.241696
12.7694	12.6255	0.304832	0.243729
12.7699	12.626	0.305847	0.242982
12.7703	12.6265	0.305391	0.242062
12.7708	12.6269	0.304071	0.242528
12.7713	12.6274	0.304914	0.244646
12.7717	12.6279	0.302034	0.243817
12.7722	12.6284	0.304443	0.243855
12.7727	12.6288	0.30781	0.244365
12.7732	12.6293	0.306166	0.245125
12.7736	12.6298	0.305096	0.245014
12.7741	12.6302	0.305391	0.245365
12.7746	12.6307	0.305463	0.245247
12.7751	12.6312	0.306699	0.243503
12.7755	12.6317	0.306224	0.2458
12.776	12.6321	0.305613	0.2454
12.7765	12.6326	0.304663	0.244457
12.7769	12.6331	0.306892	0.243716
12.7774	12.6335	0.307843	0.243716
12.7779	12.634	0.305517	0.243548
12.7784	12.6345	0.30586	0.245654
12.7788	12.6349	0.308659	0.246747
12.7793	12.6354	0.306166	0.245278
12.7798	12.6359	0.307709	0.24552
12.7802	12.6364	0.30812	0.246531
12.7807	12.6368	0.307088	0.248433
12.7812	12.6373	0.305436	0.248464
12.7817	12.6378	0.307777	0.249198
12.7821	12.6383	0.310018	0.249458
12.7826	12.6387	0.308415	0.250985
12.7831	12.6392	0.308506	0.251607
12.7836	12.6397	0.307586	0.251156
12.784	12.6401	0.307454	0.249432
12.7845	12.6406	0.309348	0.250752
12.785	12.6411	0.308229	0.251263
12.7854	12.6416	0.307591	0.252652
12.7859	12.642	0.306171	0.250548
12.7864	12.6425	0.307082	0.25047
12.7869	12.6429	0.309532	0.251531
12.7873	12.6434	0.307471	0.249785
12.7878	12.6439	0.307421	0.250969
12.7883	12.6443	0.306815	0.250143
12.7887	12.6448	0.307503	0.25003
12.7892	12.6453	0.307091	0.246783
12.7897	12.6458	0.307177	0.247389
12.7902	12.6463	0.307235	0.247749
12.7906	12.6467	0.304901	0.244256
12.7911	12.6472	0.305477	0.243219
12.7916	12.6477	0.311992	0.24505
12.7921	12.6482	0.308611	0.242189
12.7925	12.6486	0.307229	0.240833
12.793	12.6491	0.3088	0.239777
12.7935	12.6496	0.309815	0.237996
12.7939	12.65	0.31134	0.235674
12.7944	12.6505	0.310956	0.235385
12.7949	12.651	0.310418	0.235282
12.7954	12.6515	0.310093	0.230932
12.7958	12.652	0.309813	0.22847
12.7963	12.6524	0.314561	0.228572
12.7968	12.6529	0.30899	0.226581
12.7972	12.6533	0.310017	0.225386
12.7977	12.6538	0.310881	0.223104
12.7982	12.6543	0.309728	0.219696
12.7987	12.6548	0.312838	0.218962
12.7991	12.6553	0.311496	0.218176
12.7996	12.6557	0.312873	0.217964
12.8001	12.6562	0.30972	0.216363
12.8006	12.6567	0.311045	0.215991
12.801	12.6572	0.315021	0.215278
12.8015	12.6576	0.312528	0.214951
12.802	12.6581	0.311444	0.216455
12.8024	12.6586	0.31229	0.216562
12.8029	12.6591	0.311162	0.215372
12.8034	12.6595	0.313401	0.216606
12.8039	12.66	0.310711	0.218178
12.8043	12.6604	0.312231	0.220286
12.8048	12.6609	0.310568	0.219945
12.8053	12.6614	0.312344	0.221269
12.8057	12.6619	0.31386	0.223424
12.8062	12.6623	0.31209	0.223687
12.8067	12.6628	0.31382	0.226803
12.8072	12.6633	0.314434	0.229231
12.8076	12.6637	0.313694	0.22828
12.8081	12.6642	0.316271	0.231751
12.8086	12.6647	0.314641	0.234912
12.8091	12.6651	0.31334	0.237281
12.8095	12.6656	0.312784	0.236938
12.81	12.6661	0.315753	0.238687
12.8105	12.6666	0.31733	0.241657
12.8109	12.6671	0.312574	0.241464
12.8114	12.6675	0.312706	0.245553
12.8119	12.668	0.314827	0.246168
12.8124	12.6685	0.312633	0.248092
12.8128	12.6689	0.315301	0.249568
12.8133	12.6694	0.31405	0.253554
12.8138	12.6699	0.313544	0.256124
12.8142	12.6703	0.313795	0.256137
12.8147	12.6708	0.313205	0.256145
12.8152	12.6713	0.319719	0.261802
12.8157	12.6718	0.314708	0.262132
12.8161	12.6722	0.314311	0.263569
12.8166	12.6727	0.315224	0.265541
12.8171	12.6731	0.315516	0.266085
12.8176	12.6736	0.316604	0.267095
12.818	12.6741	0.315163	0.268353
12.8185	12.6746	0.313851	0.270192
12.819	12.675	0.312768	0.267402
12.8194	12.6755	0.313217	0.269024
12.8199	12.676	0.31566	0.272231
12.8204	12.6765	0.315329	0.271464
12.8209	12.677	0.314369	0.272726
12.8213	12.6775	0.315518	0.273291
12.8218	12.6779	0.314134	0.272293
12.8223	12.6784	0.318072	0.271518
12.8227	12.6789	0.317105	0.273936
12.8232	12.6793	0.315188	0.272981
12.8237	12.6798	0.31409	0.269423
12.8242	12.6803	0.313961	0.267278
12.8246	12.6807	0.316705	0.267619
12.8251	12.6812	0.31469	0.263519
12.8256	12.6817	0.313791	0.262462
12.8261	12.6822	0.314957	0.258482
12.8265	12.6826	0.31431	0.255423
12.827	12.6831	0.315051	0.252638
12.8275	12.6836	0.315737	0.25298
12.8279	12.684	0.315092	0.251694
12.8284	12.6845	0.3142	0.24673
12.8289	12.685	0.314341	0.242733
12.8294	12.6855	0.317859	0.243325
12.8298	12.686	0.316875	0.240334
12.8303	12.6864	0.314296	0.236981
12.8308	12.6869	0.314089	0.231564
12.8312	12.6874	0.316551	0.22875
12.8317	12.6879	0.317307	0.225427
12.8322	12.6883	0.317012	0.224307
12.8327	12.6888	0.315272	0.221099
12.8331	12.6893	0.31541	0.217951
12.8336	12.6897	0.316434	0.21726
12.8341	12.6902	0.319448	0.218568
12.8346	12.6907	0.317481	0.22068
12.835	12.6911	0.314669	0.220457
12.8355	12.6916	0.317165	0.224736
12.836	12.6921	0.317031	0.228607
12.8364	12.6925	0.31729	0.233586
12.8369	12.693	0.318083	0.238598
12.8374	12.6935	0.317231	0.245273
12.8379	12.6939	0.315988	0.24422
12.8383	12.6944	0.315604	0.249005
12.8388	12.6949	0.319817	0.253596
12.8393	12.6954	0.315942	0.25477
12.8397	12.6958	0.313413	0.2558
12.8402	12.6963	0.315156	0.255559
12.8407	12.6968	0.313976	0.255271
12.8412	12.6973	0.314829	0.254965
12.8416	12.6977	0.31745	0.256582
12.8421	12.6982	0.314502	0.253297
12.8426	12.6987	0.311795	0.247041
12.8431	12.6991	0.316455	0.245286
12.8435	12.6996	0.318317	0.244401
12.844	12.7001	0.313925	0.238374
12.8445	12.7005	0.31247	0.236087
12.8449	12.701	0.315872	0.23219
12.8454	12.7015	0.315909	0.227009
12.8459	12.702	0.315168	0.223775
12.8464	12.7024	0.315947	0.224144
12.8468	12.7029	0.314355	0.223529
12.8473	12.7034	0.311463	0.220214
12.8478	12.7038	0.314542	0.221672
12.8482	12.7043	0.316421	0.227038
12.8487	12.7048	0.314802	0.231192
12.8492	12.7053	0.313288	0.236676
12.8497	12.7058	0.315187	0.243749
12.8501	12.7062	0.317617	0.250168
12.8506	12.7067	0.316976	0.261735
12.8511	12.7072	0.317226	0.27364
12.8516	12.7077	0.316088	0.285134
12.852	12.7082	0.315343	0.294152
12.8525	12.7086	0.31656	0.307912
12.853	12.7091	0.321777	0.324584
12.8534	12.7096	0.317953	0.337454
12.8539	12.71	0.317242	0.347485
12.8544	12.7105	0.316203	0.360193
12.8549	12.711	0.315617	0.372727
12.8553	12.7115	0.316875	0.385122
12.8558	12.7119	0.317554	0.399782
12.8563	12.7124	0.316342	0.410153
12.8567	12.7129	0.314781	0.415223
12.8572	12.7133	0.31648	0.427011
12.8577	12.7138	0.319223	0.438563
12.8582	12.7143	0.319998	0.447782
12.8586	12.7147	0.316895	0.453689
12.8591	12.7152	0.317267	0.458746
12.8596	12.7157	0.317687	0.468997
12.8601	12.7162	0.316485	0.47647
12.8605	12.7167	0.315571	0.484623
12.861	12.7171	0.315485	0.493019
12.8615	12.7176	0.314811	0.496358
12.8619	12.7181	0.315312	0.499544
12.8624	12.7185	0.317076	0.504804
12.8629	12.719	0.316056	0.503659
12.8634	12.7195	0.314344	0.499336
12.8638	12.7199	0.316755	0.496024
12.8643	12.7204	0.317335	0.490957
12.8648	12.7209	0.317516	0.488712
12.8652	12.7214	0.31875	0.494903
12.8657	12.7218	0.31847	0.502855
12.8662	12.7223	0.31541	0.507768
12.8667	12.7227	0.315806	0.53218
12.8671	12.7232	0.317862	0.573548
12.8676	12.7237	0.313963	0.608487
12.8681	12.7241	0.314394	0.657858
12.8686	12.7246	0.3121	0.709532
12.869	12.7251	0.313609	0.757293
12.8695	12.7256	0.312325	0.797787
12.87	12.7261	0.31563	0.840174
12.8704	12.7265	0.316107	0.86802
12.8709	12.727	0.31456	0.873961
12.8714	12.7275	0.319824	0.90007
12.8719	12.728	0.318861	0.915497
12.8723	12.7284	0.317056	0.916538
12.8728	12.7289	0.316523	0.924639
12.8733	12.7294	0.318335	0.929926
12.8737	12.7298	0.318445	0.9326
12.8742	12.7303	0.317334	0.933761
12.8747	12.7308	0.321369	0.945549
12.8752	12.7313	0.317666	0.944876
12.8756	12.7317	0.316669	0.937786
12.8761	12.7322	0.318331	0.949109
12.8766	12.7327	0.321241	0.9526
12.8771	12.7331	0.320639	0.955906
12.8775	12.7336	0.318923	0.958412
12.878	12.7341	0.319956	0.960995
12.8785	12.7346	0.32308	0.963779
12.8789	12.735	0.321316	0.963766
12.8794	12.7355	0.323399	0.971008
12.8799	12.736	0.321096	0.970455
12.8804	12.7365	0.319157	0.964841
12.8808	12.737	0.320689	0.965576
12.8813	12.7374	0.320852	0.969946
12.8818	12.7379	0.320324	0.972452
12.8822	12.7384	0.320087	0.971384
12.8827	12.7389	0.322644	0.971531
12.8832	12.7393	0.323313	0.975169
12.8837	12.7398	0.322905	0.978688
12.8841	12.7403	0.323991	0.982552
12.8846	12.7407	0.322704	0.982572
12.8851	12.7412	0.323134	0.980034
12.8856	12.7417	0.324873	0.981583
12.886	12.7422	0.324863	0.987522
12.8865	12.7426	0.324216	0.984026
12.887	12.7431	0.323365	0.984091
12.8874	12.7435	0.323818	0.981844
12.8879	12.744	0.32454	0.982868
12.8884	12.7445	0.324354	0.984538
12.8889	12.745	0.324081	0.990446
12.8893	12.7454	0.323993	0.987782
12.8898	12.7459	0.320748	0.982601
12.8903	12.7464	0.327145	0.988499
12.8907	12.7469	0.32538	0.993525
12.8912	12.7474	0.325355	0.994371
12.8917	12.7478	0.324826	0.995991
12.8922	12.7483	0.327006	0.995793
12.8926	12.7488	0.328724	0.994357
12.8931	12.7492	0.326126	0.995806
12.8936	12.7497	0.327378	1.00123
12.8941	12.7501	0.326032	0.997349
12.8945	12.7506	0.32474	0.989813
12.895	12.7511	0.326744	0.993719
12.8955	12.7516	0.326756	0.99675
12.8959	12.752	0.324946	0.99578
12.8964	12.7525	0.326497	0.994486
12.8969	12.753	0.326513	0.99631
12.8974	12.7534	0.329295	1.00002
12.8978	12.7539	0.327079	0.997141
12.8983	12.7544	0.328685	1.00423
12.8988	12.7548	0.327694	1.00352
