# 1304     AichiSR QXAFS
# Start     : 8.9544
# End       : 9.0544
# Dir       : Forward
# Points    : 300
# ScanTime  : 1.01549
# Date      : 13.04.23 22:25
# Ring Cur. : 25.5[mA]
12.7557	12.7557	0.399228	1.21733
12.7562	12.7552	0.39868	1.21402
12.7566	12.7548	0.396768	1.2116
12.7571	12.7543	0.400085	1.21399
12.7576	12.7538	0.398759	1.21577
12.7581	12.7533	0.398707	1.21435
12.7585	12.7529	0.39806	1.21777
12.759	12.7524	0.398518	1.20932
12.7595	12.752	0.398879	1.21198
12.7599	12.7515	0.398573	1.21357
12.7604	12.751	0.397676	1.2117
12.7609	12.7505	0.396307	1.21184
12.7614	12.7501	0.396872	1.20799
12.7618	12.7496	0.399228	1.20884
12.7623	12.7492	0.396738	1.2103
12.7628	12.7487	0.396603	1.21079
12.7632	12.7482	0.396806	1.21101
12.7637	12.7478	0.396048	1.20729
12.7642	12.7473	0.396818	1.20695
12.7647	12.7468	0.397351	1.20769
12.7651	12.7463	0.396279	1.20718
12.7656	12.7459	0.39533	1.20712
12.7661	12.7454	0.395029	1.20563
12.7666	12.7449	0.398391	1.20379
12.767	12.7444	0.396278	1.20608
12.7675	12.7439	0.395814	1.20464
12.768	12.7435	0.396072	1.20507
12.7684	12.743	0.395137	1.19955
12.7689	12.7425	0.397096	1.19792
12.7694	12.7421	0.395709	1.20445
12.7699	12.7416	0.395771	1.20146
12.7703	12.7411	0.394493	1.19772
12.7708	12.7407	0.394368	1.19602
12.7713	12.7402	0.394997	1.19577
12.7717	12.7397	0.396021	1.1959
12.7722	12.7393	0.395555	1.19816
12.7727	12.7388	0.394141	1.19646
12.7732	12.7383	0.393851	1.19276
12.7736	12.7378	0.397216	1.19667
12.7741	12.7374	0.398509	1.20675
12.7746	12.7369	0.395538	1.19568
12.7751	12.7364	0.394971	1.19037
12.7755	12.7359	0.39438	1.18714
12.776	12.7355	0.395604	1.18819
12.7765	12.735	0.395635	1.18856
12.7769	12.7345	0.39476	1.18856
12.7774	12.734	0.395257	1.18428
12.7779	12.7335	0.394733	1.18095
12.7784	12.7331	0.395811	1.17603
12.7788	12.7326	0.393816	1.17944
12.7793	12.7321	0.392716	1.17952
12.7798	12.7317	0.393508	1.17214
12.7802	12.7312	0.394369	1.16795
12.7807	12.7307	0.394057	1.16642
12.7812	12.7302	0.394473	1.16427
12.7817	12.7298	0.393696	1.15923
12.7821	12.7293	0.394253	1.15697
12.7826	12.7288	0.392023	1.14662
12.7831	12.7284	0.393672	1.14283
12.7836	12.7279	0.394307	1.13755
12.784	12.7274	0.392753	1.13021
12.7845	12.7269	0.393078	1.11152
12.785	12.7265	0.391893	1.09567
12.7854	12.726	0.392575	1.08033
12.7859	12.7255	0.389437	1.0497
12.7864	12.725	0.388781	1.01389
12.7869	12.7246	0.388605	0.969095
12.7873	12.7241	0.389649	0.912414
12.7878	12.7236	0.391883	0.855558
12.7883	12.7231	0.392587	0.79585
12.7887	12.7227	0.392685	0.74147
12.7892	12.7222	0.393111	0.688911
12.7897	12.7218	0.395826	0.656216
12.7902	12.7213	0.396361	0.632762
12.7906	12.7208	0.395795	0.620235
12.7911	12.7203	0.394619	0.615595
12.7916	12.7199	0.395644	0.611519
12.7921	12.7194	0.395655	0.613934
12.7925	12.7189	0.396154	0.618953
12.793	12.7185	0.395128	0.624607
12.7935	12.718	0.395158	0.628776
12.7939	12.7175	0.3951	0.628709
12.7944	12.7171	0.397669	0.623641
12.7949	12.7166	0.397076	0.620439
12.7954	12.7161	0.397161	0.612521
12.7958	12.7156	0.394442	0.600748
12.7963	12.7151	0.395949	0.589121
12.7968	12.7147	0.397302	0.577969
12.7972	12.7142	0.397055	0.567514
12.7977	12.7137	0.396014	0.557592
12.7982	12.7132	0.39557	0.550353
12.7987	12.7128	0.396702	0.536177
12.7991	12.7123	0.395453	0.52447
12.7996	12.7119	0.396203	0.515031
12.8001	12.7114	0.397537	0.505191
12.8006	12.7109	0.394421	0.490971
12.801	12.7104	0.395137	0.474869
12.8015	12.71	0.39632	0.45764
12.802	12.7095	0.397267	0.442319
12.8024	12.709	0.39842	0.429492
12.8029	12.7086	0.396329	0.412013
12.8034	12.7081	0.395904	0.391307
12.8039	12.7076	0.395971	0.375513
12.8043	12.7071	0.398501	0.363381
12.8048	12.7067	0.397407	0.348219
12.8053	12.7062	0.395739	0.33337
12.8057	12.7057	0.396442	0.321913
12.8062	12.7052	0.397883	0.309515
12.8067	12.7047	0.395633	0.299422
12.8072	12.7042	0.397798	0.294912
12.8076	12.7038	0.396766	0.288341
12.8081	12.7033	0.397192	0.280996
12.8086	12.7028	0.398401	0.279369
12.8091	12.7024	0.397995	0.278506
12.8095	12.7019	0.397133	0.280534
12.81	12.7014	0.395977	0.282229
12.8105	12.701	0.395604	0.284121
12.8109	12.7005	0.398979	0.286776
12.8114	12.7	0.397516	0.292435
12.8119	12.6995	0.397014	0.29831
12.8124	12.6991	0.396082	0.303267
12.8128	12.6986	0.396628	0.305168
12.8133	12.6982	0.397939	0.309476
12.8138	12.6977	0.398224	0.314956
12.8142	12.6972	0.39806	0.318361
12.8147	12.6967	0.396668	0.320987
12.8152	12.6963	0.396405	0.320439
12.8157	12.6958	0.396966	0.321184
12.8161	12.6953	0.396905	0.321243
12.8166	12.6948	0.3991	0.322027
12.8171	12.6943	0.395586	0.318292
12.8176	12.6939	0.397147	0.312867
12.818	12.6934	0.398152	0.309674
12.8185	12.6929	0.397628	0.305547
12.819	12.6925	0.39682	0.300671
12.8194	12.692	0.396458	0.294609
12.8199	12.6916	0.396729	0.287221
12.8204	12.6911	0.400227	0.282431
12.8209	12.6906	0.398461	0.279132
12.8213	12.6901	0.396631	0.27653
12.8218	12.6897	0.396177	0.273856
12.8223	12.6892	0.394793	0.271122
12.8227	12.6887	0.396707	0.27225
12.8232	12.6883	0.396302	0.276226
12.8237	12.6878	0.397007	0.278274
12.8242	12.6873	0.397153	0.282175
12.8246	12.6868	0.396786	0.282817
12.8251	12.6864	0.397076	0.286945
12.8256	12.6859	0.396199	0.293167
12.8261	12.6854	0.395924	0.299235
12.8265	12.6849	0.395804	0.301571
12.827	12.6844	0.394504	0.303217
12.8275	12.684	0.395717	0.306917
12.8279	12.6835	0.394618	0.311865
12.8284	12.683	0.394582	0.314883
12.8289	12.6826	0.393983	0.316525
12.8294	12.6821	0.395214	0.319219
12.8298	12.6816	0.39569	0.320904
12.8303	12.6812	0.394675	0.326077
12.8308	12.6807	0.397559	0.329615
12.8312	12.6802	0.395737	0.332304
12.8317	12.6797	0.395128	0.333086
12.8322	12.6793	0.396948	0.335634
12.8327	12.6788	0.396346	0.33986
12.8331	12.6783	0.396437	0.341711
12.8336	12.6779	0.396579	0.341501
12.8341	12.6774	0.395941	0.340121
12.8346	12.6769	0.397848	0.340574
12.835	12.6764	0.396203	0.342658
12.8355	12.6759	0.395716	0.343449
12.836	12.6755	0.395731	0.340692
12.8364	12.675	0.396035	0.339239
12.8369	12.6745	0.396073	0.339649
12.8374	12.674	0.396988	0.338747
12.8379	12.6736	0.39516	0.338142
12.8383	12.6731	0.395912	0.336773
12.8388	12.6726	0.395732	0.333382
12.8393	12.6722	0.39711	0.333101
12.8397	12.6717	0.396433	0.331898
12.8402	12.6712	0.395872	0.331033
12.8407	12.6707	0.395126	0.329265
12.8412	12.6703	0.395925	0.325058
12.8416	12.6698	0.396985	0.323055
12.8421	12.6693	0.395889	0.321637
12.8426	12.6689	0.394374	0.319577
12.8431	12.6684	0.393847	0.317232
12.8435	12.668	0.394418	0.312437
12.844	12.6675	0.396985	0.311089
12.8445	12.667	0.394181	0.308723
12.8449	12.6665	0.396236	0.307705
12.8454	12.6661	0.39552	0.302805
12.8459	12.6656	0.394034	0.300357
12.8464	12.6651	0.395278	0.297517
12.8468	12.6646	0.394847	0.297882
12.8473	12.6641	0.394957	0.295597
12.8478	12.6637	0.394009	0.292345
12.8482	12.6632	0.394458	0.289176
12.8487	12.6627	0.395785	0.2876
12.8492	12.6623	0.394921	0.286807
12.8497	12.6618	0.393694	0.284402
12.8501	12.6614	0.393393	0.281728
12.8506	12.6609	0.392695	0.278111
12.8511	12.6604	0.395962	0.276433
12.8516	12.6599	0.393317	0.276279
12.852	12.6595	0.392931	0.27374
12.8525	12.659	0.392709	0.272571
12.853	12.6585	0.394013	0.270163
12.8534	12.6581	0.393651	0.269828
12.8539	12.6576	0.393295	0.271166
12.8544	12.6571	0.393082	0.271477
12.8549	12.6566	0.393068	0.270453
12.8553	12.6562	0.39146	0.270544
12.8558	12.6557	0.394802	0.270993
12.8563	12.6552	0.394069	0.273222
12.8567	12.6547	0.392343	0.274791
12.8572	12.6542	0.391819	0.274839
12.8577	12.6538	0.392154	0.276604
12.8582	12.6533	0.393631	0.278064
12.8586	12.6528	0.393514	0.283635
12.8591	12.6524	0.392783	0.283402
12.8596	12.6519	0.393703	0.285863
12.8601	12.6514	0.392412	0.287115
12.8605	12.6509	0.394263	0.289665
12.861	12.6505	0.39345	0.293844
12.8615	12.65	0.391355	0.296477
12.8619	12.6495	0.392614	0.297103
12.8624	12.6491	0.391821	0.299015
12.8629	12.6486	0.393371	0.301955
12.8634	12.6481	0.392434	0.303741
12.8638	12.6476	0.389562	0.307464
12.8643	12.6472	0.391452	0.305688
12.8648	12.6467	0.389945	0.305526
12.8652	12.6462	0.388993	0.308884
12.8657	12.6457	0.387073	0.312338
12.8662	12.6452	0.387317	0.311288
12.8667	12.6448	0.387095	0.311213
12.8671	12.6443	0.388132	0.313537
12.8676	12.6438	0.388761	0.314334
12.8681	12.6433	0.39053	0.31598
12.8686	12.6429	0.389909	0.318287
12.869	12.6424	0.389769	0.317204
12.8695	12.642	0.390212	0.317445
12.87	12.6415	0.390167	0.318407
12.8704	12.641	0.392472	0.321415
12.8709	12.6405	0.390448	0.319912
12.8714	12.6401	0.3909	0.318676
12.8719	12.6396	0.390685	0.31779
12.8723	12.6391	0.391769	0.316889
12.8728	12.6387	0.391629	0.317988
12.8733	12.6382	0.389356	0.318149
12.8737	12.6377	0.39094	0.314193
12.8742	12.6373	0.390172	0.312344
12.8747	12.6368	0.390418	0.313766
12.8752	12.6363	0.391798	0.313972
12.8756	12.6358	0.390097	0.313516
12.8761	12.6354	0.389254	0.311652
12.8766	12.6349	0.390886	0.310446
12.8771	12.6344	0.392522	0.310723
12.8775	12.6339	0.392058	0.311763
12.878	12.6335	0.389078	0.310025
12.8785	12.633	0.389455	0.309289
12.8789	12.6325	0.389963	0.308125
12.8794	12.6321	0.389401	0.309156
12.8799	12.6316	0.389883	0.31132
12.8804	12.6311	0.388275	0.311319
12.8808	12.6307	0.388861	0.309647
12.8813	12.6302	0.389958	0.309151
12.8818	12.6297	0.389357	0.310005
12.8822	12.6292	0.389297	0.312625
12.8827	12.6288	0.389452	0.312062
12.8832	12.6283	0.388941	0.310532
12.8837	12.6278	0.388553	0.310498
12.8841	12.6274	0.389256	0.311533
12.8846	12.6269	0.39004	0.312238
12.8851	12.6264	0.387576	0.310438
12.8856	12.6259	0.38702	0.308994
12.886	12.6254	0.389323	0.307879
12.8865	12.625	0.388111	0.307876
12.887	12.6245	0.389121	0.307949
12.8874	12.624	0.386714	0.307285
12.8879	12.6235	0.387645	0.304674
12.8884	12.6231	0.387654	0.303912
12.8889	12.6226	0.387687	0.304246
12.8893	12.6221	0.389345	0.305673
12.8898	12.6217	0.387971	0.302462
12.8903	12.6212	0.387384	0.301886
12.8907	12.6207	0.388992	0.300771
12.8912	12.6202	0.38796	0.300608
12.8917	12.6198	0.388008	0.303212
12.8922	12.6193	0.386021	0.302787
12.8926	12.6188	0.38664	0.299419
12.8931	12.6184	0.386995	0.299836
12.8936	12.6179	0.386936	0.300362
12.8941	12.6174	0.386984	0.301133
12.8945	12.6169	0.385307	0.300094
12.895	12.6165	0.385053	0.298592
12.8955	12.616	0.385668	0.298587
12.8959	12.6155	0.385515	0.299794
12.8964	12.615	0.386129	0.299997
12.8969	12.6145	0.385849	0.299636
12.8974	12.6141	0.38547	0.298566
12.8978	12.6136	0.386514	0.296231
12.8983	12.6131	0.38599	0.297947
12.8988	12.6127	0.384369	0.29816
