# 1304     AichiSR QXAFS
# Start     : 8.9544
# End       : 9.0544
# Dir       : Backward
# Points    : 300
# ScanTime  : 1.01549
# Date      : 13.04.23 22:22
# Ring Cur. : 25.5[mA]
12.7557	12.6117	0.308546	0.235337
12.7562	12.6122	0.306337	0.235787
12.7566	12.6127	0.309044	0.23784
12.7571	12.6131	0.308268	0.238
12.7576	12.6136	0.307888	0.237903
12.7581	12.6141	0.309363	0.240129
12.7585	12.6145	0.308338	0.240007
12.759	12.615	0.307988	0.238611
12.7595	12.6155	0.309667	0.239541
12.7599	12.616	0.310621	0.241785
12.7604	12.6164	0.308794	0.241045
12.7609	12.6169	0.30809	0.2406
12.7614	12.6174	0.309307	0.238632
12.7618	12.6179	0.311054	0.241388
12.7623	12.6183	0.309659	0.240982
12.7628	12.6188	0.310379	0.243018
12.7632	12.6193	0.312094	0.243057
12.7637	12.6197	0.310014	0.241665
12.7642	12.6202	0.310073	0.240878
12.7647	12.6207	0.313316	0.243328
12.7651	12.6212	0.311372	0.243534
12.7656	12.6217	0.307362	0.240984
12.7661	12.6221	0.310172	0.241839
12.7666	12.6226	0.31197	0.242838
12.767	12.6231	0.309826	0.244217
12.7675	12.6235	0.309133	0.244558
12.768	12.624	0.309062	0.245133
12.7684	12.6245	0.308553	0.243983
12.7689	12.6249	0.311906	0.245026
12.7694	12.6254	0.313431	0.249148
12.7699	12.6259	0.308813	0.247759
12.7703	12.6264	0.309118	0.24889
12.7708	12.6269	0.310692	0.247425
12.7713	12.6273	0.312466	0.248932
12.7717	12.6278	0.309774	0.249291
12.7722	12.6283	0.3101	0.250411
12.7727	12.6288	0.310286	0.250776
12.7732	12.6292	0.309731	0.248482
12.7736	12.6297	0.310829	0.248865
12.7741	12.6302	0.312278	0.247993
12.7746	12.6306	0.312332	0.250836
12.7751	12.6311	0.310087	0.248536
12.7755	12.6316	0.311996	0.248641
12.776	12.6321	0.313513	0.247758
12.7765	12.6325	0.313509	0.249378
12.7769	12.633	0.312918	0.25064
12.7774	12.6334	0.313358	0.249229
12.7779	12.6339	0.3115	0.248873
12.7784	12.6344	0.312398	0.247852
12.7788	12.6349	0.311927	0.249938
12.7793	12.6353	0.313864	0.250613
12.7798	12.6358	0.309839	0.248856
12.7802	12.6363	0.310844	0.249674
12.7807	12.6368	0.313457	0.25145
12.7812	12.6372	0.310667	0.25024
12.7817	12.6377	0.313591	0.255338
12.7821	12.6382	0.314596	0.255603
12.7826	12.6387	0.312713	0.253235
12.7831	12.6391	0.313207	0.252206
12.7836	12.6396	0.315555	0.257356
12.784	12.64	0.314259	0.256803
12.7845	12.6405	0.312492	0.256212
12.785	12.641	0.313479	0.256667
12.7854	12.6415	0.315508	0.256191
12.7859	12.6419	0.311706	0.254882
12.7864	12.6424	0.312797	0.256916
12.7869	12.6428	0.312919	0.256958
12.7873	12.6433	0.310626	0.252501
12.7878	12.6438	0.312397	0.252408
12.7883	12.6443	0.313197	0.253963
12.7887	12.6447	0.3114	0.255154
12.7892	12.6452	0.309196	0.251638
12.7897	12.6457	0.311718	0.249766
12.7902	12.6462	0.312276	0.249411
12.7906	12.6467	0.311708	0.249073
12.7911	12.6471	0.313503	0.250302
12.7916	12.6476	0.313233	0.248405
12.7921	12.6481	0.311221	0.244744
12.7925	12.6486	0.313928	0.243861
12.793	12.649	0.315787	0.244245
12.7935	12.6495	0.314571	0.243926
12.7939	12.65	0.312737	0.239505
12.7944	12.6504	0.314087	0.238152
12.7949	12.6509	0.317733	0.236838
12.7954	12.6514	0.314874	0.235381
12.7958	12.6519	0.316288	0.234025
12.7963	12.6523	0.316476	0.231908
12.7968	12.6528	0.314332	0.228377
12.7972	12.6533	0.316965	0.227244
12.7977	12.6537	0.316286	0.227368
12.7982	12.6542	0.316883	0.22596
12.7987	12.6547	0.315093	0.222828
12.7991	12.6552	0.315346	0.221266
12.7996	12.6557	0.318566	0.219935
12.8001	12.6561	0.315767	0.218163
12.8006	12.6566	0.314139	0.218807
12.801	12.6571	0.315602	0.218925
12.8015	12.6576	0.314228	0.216087
12.802	12.658	0.317195	0.216932
12.8024	12.6585	0.316685	0.21884
12.8029	12.659	0.316434	0.220295
12.8034	12.6594	0.315677	0.220812
12.8039	12.6599	0.315443	0.219778
12.8043	12.6604	0.319142	0.22204
12.8048	12.6609	0.31764	0.224254
12.8053	12.6613	0.316637	0.226371
12.8057	12.6618	0.318099	0.227134
12.8062	12.6623	0.314357	0.225143
12.8067	12.6627	0.318808	0.228479
12.8072	12.6632	0.318554	0.232031
12.8076	12.6636	0.317531	0.233863
12.8081	12.6641	0.316784	0.233316
12.8086	12.6646	0.316461	0.234487
12.8091	12.6651	0.319072	0.237519
12.8095	12.6655	0.31701	0.239074
12.81	12.666	0.317496	0.243321
12.8105	12.6665	0.316803	0.244386
12.8109	12.667	0.31598	0.24422
12.8114	12.6675	0.319609	0.247898
12.8119	12.6679	0.318053	0.249732
12.8124	12.6684	0.317767	0.252338
12.8128	12.6689	0.318239	0.252233
12.8133	12.6693	0.316486	0.253966
12.8138	12.6698	0.318284	0.256423
12.8142	12.6702	0.316926	0.25936
12.8147	12.6707	0.316846	0.260982
12.8152	12.6712	0.316851	0.262898
12.8157	12.6717	0.315342	0.262561
12.8161	12.6721	0.318426	0.26451
12.8166	12.6726	0.320059	0.268188
12.8171	12.6731	0.318672	0.269518
12.8176	12.6735	0.316988	0.268516
12.818	12.674	0.316549	0.269671
12.8185	12.6745	0.320612	0.27252
12.819	12.675	0.317688	0.273066
12.8194	12.6755	0.317723	0.274352
12.8199	12.6759	0.317722	0.27442
12.8204	12.6764	0.317208	0.272782
12.8209	12.6769	0.322239	0.275007
12.8213	12.6774	0.321849	0.278361
12.8218	12.6779	0.319368	0.277032
12.8223	12.6783	0.316024	0.273315
12.8227	12.6788	0.317135	0.271883
12.8232	12.6793	0.320069	0.273946
12.8237	12.6797	0.319221	0.273981
12.8242	12.6802	0.318859	0.272183
12.8246	12.6807	0.319193	0.269442
12.8251	12.6812	0.316646	0.265264
12.8256	12.6816	0.318754	0.264188
12.8261	12.6821	0.320218	0.263035
12.8265	12.6826	0.318599	0.261813
12.827	12.683	0.315467	0.256176
12.8275	12.6835	0.315256	0.252185
12.8279	12.684	0.319135	0.251515
12.8284	12.6844	0.318048	0.250796
12.8289	12.6849	0.31691	0.248579
12.8294	12.6854	0.316868	0.244635
12.8298	12.6859	0.317697	0.240035
12.8303	12.6864	0.318826	0.237756
12.8308	12.6868	0.32123	0.237267
12.8312	12.6873	0.320618	0.234042
12.8317	12.6878	0.319606	0.229101
12.8322	12.6883	0.319864	0.224522
12.8327	12.6887	0.322283	0.223999
12.8331	12.6892	0.322738	0.222607
12.8336	12.6896	0.322229	0.223983
12.8341	12.6901	0.321838	0.221489
12.8346	12.6906	0.319274	0.219732
12.835	12.6911	0.321063	0.221957
12.8355	12.6915	0.322556	0.230162
12.836	12.692	0.321852	0.234286
12.8364	12.6925	0.321606	0.23599
12.8369	12.6929	0.320975	0.240447
12.8374	12.6934	0.324212	0.244887
12.8379	12.6939	0.323526	0.251496
12.8383	12.6943	0.323138	0.256307
12.8388	12.6948	0.323885	0.258723
12.8393	12.6953	0.32149	0.25873
12.8397	12.6958	0.324207	0.261299
12.8402	12.6962	0.324726	0.264002
12.8407	12.6967	0.322705	0.263326
12.8412	12.6972	0.321829	0.260191
12.8416	12.6977	0.321805	0.257367
12.8421	12.6981	0.323163	0.256577
12.8426	12.6986	0.321615	0.255107
12.8431	12.6991	0.323182	0.253875
12.8435	12.6995	0.323635	0.249009
12.844	12.7	0.322293	0.242599
12.8445	12.7005	0.323015	0.239704
12.8449	12.7009	0.325158	0.239508
12.8454	12.7014	0.32457	0.237417
12.8459	12.7019	0.323382	0.231913
12.8464	12.7024	0.322363	0.229202
12.8468	12.7028	0.325791	0.228585
12.8473	12.7033	0.324197	0.228958
12.8478	12.7038	0.323156	0.232246
12.8482	12.7042	0.326823	0.235151
12.8487	12.7047	0.323785	0.235872
12.8492	12.7052	0.323957	0.241625
12.8497	12.7057	0.325764	0.251628
12.8501	12.7062	0.32532	0.261874
12.8506	12.7066	0.324913	0.268083
12.8511	12.7071	0.326453	0.27743
12.8516	12.7076	0.327123	0.291726
12.852	12.7081	0.326387	0.305072
12.8525	12.7086	0.329155	0.321262
12.853	12.709	0.329479	0.33418
12.8534	12.7095	0.328128	0.344037
12.8539	12.7099	0.329213	0.358016
12.8544	12.7104	0.329386	0.375653
12.8549	12.7109	0.32802	0.390409
12.8553	12.7114	0.32697	0.396207
12.8558	12.7118	0.327842	0.409178
12.8563	12.7123	0.328893	0.42217
12.8567	12.7128	0.327395	0.430543
12.8572	12.7132	0.327868	0.442566
12.8577	12.7137	0.32799	0.450631
12.8582	12.7142	0.328577	0.457797
12.8586	12.7147	0.329069	0.464948
12.8591	12.7151	0.329557	0.478544
12.8596	12.7156	0.33062	0.488148
12.8601	12.7161	0.328157	0.492672
12.8605	12.7166	0.328109	0.502185
12.861	12.717	0.329075	0.510668
12.8615	12.7175	0.326661	0.517013
12.8619	12.718	0.327599	0.523602
12.8624	12.7185	0.32578	0.520848
12.8629	12.7189	0.326375	0.516234
12.8634	12.7194	0.327262	0.514559
12.8638	12.7198	0.327774	0.513376
12.8643	12.7203	0.327581	0.510015
12.8648	12.7208	0.32729	0.505232
12.8652	12.7213	0.328876	0.511027
12.8657	12.7217	0.330084	0.5196
12.8662	12.7222	0.3281	0.529882
12.8667	12.7227	0.327698	0.55906
12.8671	12.7231	0.329313	0.591363
12.8676	12.7236	0.32699	0.627677
12.8681	12.7241	0.324977	0.676717
12.8686	12.7245	0.325242	0.735858
12.869	12.725	0.322755	0.781387
12.8695	12.7255	0.321606	0.815064
12.87	12.726	0.325299	0.85661
12.8704	12.7264	0.327575	0.886656
12.8709	12.7269	0.326443	0.903739
12.8714	12.7274	0.326842	0.924844
12.8719	12.7279	0.330162	0.940995
12.8723	12.7284	0.330008	0.945188
12.8728	12.7288	0.32764	0.95124
12.8733	12.7293	0.32955	0.961483
12.8737	12.7297	0.32855	0.967708
12.8742	12.7302	0.327214	0.962345
12.8747	12.7307	0.330396	0.972383
12.8752	12.7312	0.329906	0.975701
12.8756	12.7317	0.326817	0.97384
12.8761	12.7321	0.32917	0.984025
12.8766	12.7326	0.329895	0.983163
12.8771	12.7331	0.32785	0.978599
12.8775	12.7335	0.330504	0.984558
12.878	12.734	0.332063	0.994036
12.8785	12.7345	0.330631	0.994385
12.8789	12.735	0.328533	0.986401
12.8794	12.7354	0.331895	0.994553
12.8799	12.7359	0.331937	0.997285
12.8804	12.7364	0.331316	0.99669
12.8808	12.7369	0.330489	1.00124
12.8813	12.7374	0.330384	0.997416
12.8818	12.7378	0.331088	0.996259
12.8822	12.7383	0.330778	1.0008
12.8827	12.7388	0.332725	1.00293
12.8832	12.7392	0.330739	1.00232
12.8837	12.7397	0.32979	1.00182
12.8841	12.7402	0.332728	1.00327
12.8846	12.7406	0.331572	1.00046
12.8851	12.7411	0.331574	1.00624
12.8856	12.7416	0.332656	1.01351
12.886	12.7421	0.332286	1.00791
12.8865	12.7425	0.333584	1.0062
12.887	12.743	0.332372	1.00822
12.8874	12.7435	0.334282	1.01367
12.8879	12.7439	0.331248	1.01375
12.8884	12.7444	0.33236	1.00931
12.8889	12.7449	0.333339	1.0124
12.8893	12.7454	0.33349	1.01183
12.8898	12.7458	0.333061	1.01379
12.8903	12.7463	0.335	1.01859
12.8907	12.7468	0.333106	1.01221
12.8912	12.7473	0.332363	1.0117
12.8917	12.7478	0.333222	1.01547
12.8922	12.7482	0.335625	1.02082
12.8926	12.7487	0.332953	1.02095
12.8931	12.7492	0.333736	1.01358
12.8936	12.7496	0.334511	1.01958
12.8941	12.7501	0.33458	1.01999
12.8945	12.7505	0.334609	1.01863
12.895	12.751	0.333542	1.02142
12.8955	12.7515	0.33532	1.01786
12.8959	12.752	0.33474	1.01624
12.8964	12.7524	0.332192	1.0145
12.8969	12.7529	0.334338	1.0225
12.8974	12.7534	0.333824	1.02116
12.8978	12.7538	0.332086	1.01227
12.8983	12.7543	0.335441	1.01755
12.8988	12.7548	0.333794	1.01731
