# 1304     AichiSR QXAFS
# Start     : 8.9544
# End       : 9.0544
# Dir       : Forward
# Points    : 300
# ScanTime  : 1.01549
# Date      : 13.04.23 22:26
# Ring Cur. : 25.4[mA]
12.7557	12.7557	0.400075	1.22303
12.7562	12.7553	0.402437	1.22045
12.7566	12.7548	0.400279	1.22374
12.7571	12.7543	0.399966	1.2216
12.7576	12.7538	0.402204	1.22454
12.7581	12.7534	0.399192	1.22017
12.7585	12.7529	0.401854	1.21837
12.759	12.7524	0.401913	1.22089
12.7595	12.752	0.402026	1.22337
12.7599	12.7515	0.399477	1.22
12.7604	12.751	0.400045	1.21603
12.7609	12.7506	0.401732	1.21718
12.7614	12.7501	0.399971	1.21512
12.7618	12.7496	0.400167	1.21919
12.7623	12.7492	0.398612	1.2172
12.7628	12.7487	0.399541	1.21622
12.7632	12.7482	0.400828	1.21594
12.7637	12.7478	0.400757	1.21579
12.7642	12.7473	0.400152	1.21628
12.7647	12.7468	0.399555	1.21484
12.7651	12.7463	0.399457	1.21628
12.7656	12.7459	0.401327	1.21332
12.7661	12.7454	0.398687	1.21381
12.7666	12.7449	0.400103	1.21791
12.767	12.7444	0.40013	1.21581
12.7675	12.744	0.398038	1.20923
12.768	12.7435	0.400638	1.21103
12.7684	12.743	0.39873	1.21147
12.7689	12.7426	0.398802	1.21247
12.7694	12.7421	0.397991	1.21117
12.7699	12.7416	0.399032	1.20879
12.7703	12.7411	0.400987	1.20677
12.7708	12.7407	0.399164	1.2087
12.7713	12.7402	0.400836	1.21086
12.7717	12.7397	0.399121	1.20853
12.7722	12.7393	0.398667	1.20585
12.7727	12.7388	0.399806	1.20596
12.7732	12.7383	0.399931	1.20211
12.7736	12.7379	0.39847	1.20338
12.7741	12.7374	0.396716	1.20316
12.7746	12.7369	0.397362	1.20177
12.7751	12.7364	0.398144	1.19782
12.7755	12.7359	0.398605	1.19861
12.776	12.7355	0.396408	1.1984
12.7765	12.735	0.397176	1.19867
12.7769	12.7345	0.396924	1.19146
12.7774	12.734	0.398413	1.19028
12.7779	12.7335	0.397611	1.19084
12.7784	12.7331	0.398094	1.18919
12.7788	12.7326	0.396849	1.18991
12.7793	12.7321	0.397583	1.18599
12.7798	12.7317	0.397385	1.17973
12.7802	12.7312	0.397126	1.1776
12.7807	12.7307	0.398073	1.17869
12.7812	12.7302	0.39646	1.16892
12.7817	12.7298	0.393447	1.1642
12.7821	12.7293	0.398111	1.16123
12.7826	12.7288	0.395719	1.15595
12.7831	12.7284	0.396651	1.15005
12.7836	12.7279	0.395325	1.14355
12.784	12.7274	0.394425	1.13368
12.7845	12.727	0.395901	1.11927
12.785	12.7265	0.394569	1.10329
12.7854	12.726	0.39408	1.0859
12.7859	12.7255	0.390233	1.05181
12.7864	12.725	0.389357	1.00987
12.7869	12.7246	0.391809	0.968788
12.7873	12.7241	0.390376	0.912387
12.7878	12.7236	0.390248	0.851933
12.7883	12.7232	0.391883	0.79281
12.7887	12.7227	0.392544	0.73633
12.7892	12.7222	0.394252	0.685678
12.7897	12.7218	0.394462	0.652335
12.7902	12.7213	0.394137	0.631406
12.7906	12.7208	0.393359	0.618787
12.7911	12.7203	0.391432	0.608598
12.7916	12.7199	0.394919	0.609589
12.7921	12.7194	0.394857	0.613711
12.7925	12.719	0.392867	0.618057
12.793	12.7185	0.394245	0.622564
12.7935	12.718	0.393218	0.624325
12.7939	12.7176	0.395195	0.623834
12.7944	12.7171	0.393553	0.621412
12.7949	12.7166	0.39361	0.616507
12.7954	12.7161	0.39312	0.606835
12.7958	12.7156	0.393755	0.593366
12.7963	12.7152	0.394017	0.583327
12.7968	12.7147	0.394009	0.575018
12.7972	12.7142	0.393772	0.562432
12.7977	12.7137	0.391674	0.552561
12.7982	12.7133	0.390648	0.541903
12.7987	12.7128	0.392717	0.531774
12.7991	12.7123	0.391604	0.520311
12.7996	12.7119	0.392192	0.510998
12.8001	12.7114	0.390744	0.498012
12.8006	12.7109	0.390696	0.481611
12.801	12.7104	0.392988	0.467098
12.8015	12.71	0.392534	0.454143
12.802	12.7095	0.390747	0.438415
12.8024	12.709	0.392181	0.421363
12.8029	12.7086	0.391774	0.402059
12.8034	12.7081	0.39053	0.385762
12.8039	12.7076	0.392434	0.370546
12.8043	12.7071	0.392297	0.356794
12.8048	12.7067	0.390724	0.341401
12.8053	12.7062	0.389786	0.325873
12.8057	12.7057	0.393758	0.3159
12.8062	12.7052	0.391567	0.306137
12.8067	12.7047	0.390694	0.29627
12.8072	12.7043	0.390084	0.288671
12.8076	12.7038	0.390475	0.28124
12.8081	12.7033	0.39585	0.279492
12.8086	12.7028	0.396141	0.27882
12.8091	12.7024	0.391593	0.27649
12.8095	12.7019	0.391471	0.275173
12.81	12.7015	0.389416	0.275205
12.8105	12.701	0.391689	0.279997
12.8109	12.7005	0.390286	0.28435
12.8114	12.7	0.390601	0.288426
12.8119	12.6996	0.389691	0.293519
12.8124	12.6991	0.391086	0.296655
12.8128	12.6986	0.390685	0.299402
12.8133	12.6982	0.390789	0.30659
12.8138	12.6977	0.389511	0.309575
12.8142	12.6972	0.389081	0.309766
12.8147	12.6967	0.387474	0.312901
12.8152	12.6963	0.389706	0.316632
12.8157	12.6958	0.389317	0.317602
12.8161	12.6953	0.388157	0.314992
12.8166	12.6948	0.39086	0.313787
12.8171	12.6944	0.390842	0.310556
12.8176	12.6939	0.39069	0.307502
12.818	12.6934	0.390888	0.305305
12.8185	12.693	0.387602	0.30048
12.819	12.6925	0.389903	0.293227
12.8194	12.692	0.389728	0.287857
12.8199	12.6916	0.390418	0.284056
12.8204	12.6911	0.391746	0.279723
12.8209	12.6906	0.390232	0.273857
12.8213	12.6901	0.389264	0.271012
12.8218	12.6897	0.389985	0.268088
12.8223	12.6892	0.390726	0.267232
12.8227	12.6888	0.391244	0.269295
12.8232	12.6883	0.389481	0.271536
12.8237	12.6878	0.389929	0.272772
12.8242	12.6873	0.391003	0.275085
12.8246	12.6869	0.389894	0.280419
12.8251	12.6864	0.389838	0.285036
12.8256	12.6859	0.389422	0.288588
12.8261	12.6854	0.38996	0.293071
12.8265	12.6849	0.390416	0.296163
12.827	12.6845	0.389566	0.298759
12.8275	12.684	0.389969	0.304614
12.8279	12.6835	0.388372	0.308207
12.8284	12.683	0.389204	0.308768
12.8289	12.6826	0.389775	0.311422
12.8294	12.6821	0.390132	0.314466
12.8298	12.6817	0.390307	0.319043
12.8303	12.6812	0.389561	0.323405
12.8308	12.6807	0.391475	0.324083
12.8312	12.6802	0.391764	0.32673
12.8317	12.6797	0.392477	0.330263
12.8322	12.6793	0.393824	0.334532
12.8327	12.6788	0.391297	0.335397
12.8331	12.6784	0.393559	0.336896
12.8336	12.6779	0.392623	0.336067
12.8341	12.6774	0.392725	0.336976
12.8346	12.6769	0.392789	0.338729
12.835	12.6764	0.39024	0.338658
12.8355	12.676	0.393032	0.338393
12.836	12.6755	0.392424	0.3368
12.8364	12.675	0.393036	0.335475
12.8369	12.6745	0.392636	0.337315
12.8374	12.674	0.39168	0.336158
12.8379	12.6736	0.391799	0.333523
12.8383	12.6731	0.392805	0.331251
12.8388	12.6726	0.392945	0.331773
12.8393	12.6722	0.393317	0.332095
12.8397	12.6717	0.391831	0.329783
12.8402	12.6712	0.391875	0.327405
12.8407	12.6708	0.393585	0.325734
12.8412	12.6703	0.395029	0.323268
12.8416	12.6698	0.394115	0.322662
12.8421	12.6694	0.392636	0.31933
12.8426	12.6689	0.391385	0.316
12.8431	12.6684	0.393575	0.312905
12.8435	12.668	0.3929	0.311901
12.844	12.6675	0.394482	0.310204
12.8445	12.667	0.392168	0.307008
12.8449	12.6665	0.393469	0.304166
12.8454	12.6661	0.393579	0.301346
12.8459	12.6656	0.393697	0.298884
12.8464	12.6651	0.3947	0.298587
12.8468	12.6646	0.39368	0.295169
12.8473	12.6642	0.393601	0.291957
12.8478	12.6637	0.394571	0.288692
12.8482	12.6632	0.393036	0.288684
12.8487	12.6628	0.393607	0.287233
12.8492	12.6623	0.392431	0.284655
12.8497	12.6618	0.391299	0.280843
12.8501	12.6614	0.393783	0.278729
12.8506	12.6609	0.392942	0.27868
12.8511	12.6604	0.393138	0.276864
12.8516	12.6599	0.391466	0.276063
12.852	12.6595	0.392311	0.272666
12.8525	12.659	0.393026	0.269346
12.853	12.6585	0.393512	0.271206
12.8534	12.6581	0.393075	0.270998
12.8539	12.6576	0.391016	0.268954
12.8544	12.6571	0.391363	0.267877
12.8549	12.6566	0.392765	0.268738
12.8553	12.6562	0.392669	0.269603
12.8558	12.6557	0.392231	0.273072
12.8563	12.6552	0.391719	0.271697
12.8567	12.6547	0.39241	0.272675
12.8572	12.6542	0.39265	0.274753
12.8577	12.6538	0.394479	0.277211
12.8582	12.6533	0.393048	0.280731
12.8586	12.6528	0.391562	0.281862
12.8591	12.6524	0.391885	0.282782
12.8596	12.6519	0.39369	0.286006
12.8601	12.6514	0.39449	0.28791
12.8605	12.651	0.393664	0.292192
12.861	12.6505	0.392546	0.293914
12.8615	12.65	0.392315	0.295167
12.8619	12.6495	0.393062	0.29627
12.8624	12.6491	0.394514	0.299624
12.8629	12.6486	0.394238	0.303946
12.8634	12.6481	0.391238	0.304543
12.8638	12.6477	0.390367	0.304356
12.8643	12.6472	0.39109	0.305244
12.8648	12.6467	0.391068	0.308199
12.8652	12.6462	0.389844	0.309775
12.8657	12.6457	0.388869	0.311474
12.8662	12.6452	0.388175	0.310838
12.8667	12.6448	0.388828	0.310543
12.8671	12.6443	0.388951	0.31425
12.8676	12.6438	0.390972	0.316123
12.8681	12.6434	0.389226	0.317542
12.8686	12.6429	0.388835	0.316907
12.869	12.6424	0.392453	0.317074
12.8695	12.642	0.390368	0.317939
12.87	12.6415	0.391063	0.31972
12.8704	12.641	0.391404	0.319792
12.8709	12.6405	0.390428	0.317838
12.8714	12.6401	0.391724	0.317682
12.8719	12.6396	0.391807	0.320423
12.8723	12.6392	0.391664	0.318831
12.8728	12.6387	0.390922	0.316894
12.8733	12.6382	0.390716	0.316434
12.8737	12.6378	0.391122	0.315811
12.8742	12.6373	0.392156	0.316345
12.8747	12.6368	0.391623	0.316115
12.8752	12.6363	0.39033	0.314303
12.8756	12.6359	0.389158	0.310484
12.8761	12.6354	0.392615	0.311232
12.8766	12.6349	0.390536	0.312749
12.8771	12.6344	0.389557	0.312204
12.8775	12.6339	0.389034	0.309921
12.878	12.6335	0.390319	0.309301
12.8785	12.633	0.390866	0.309575
12.8789	12.6326	0.390393	0.311101
12.8794	12.6321	0.390536	0.310794
12.8799	12.6316	0.38984	0.310672
12.8804	12.6311	0.389059	0.308315
12.8808	12.6307	0.392323	0.309226
12.8813	12.6302	0.389622	0.311277
12.8818	12.6297	0.390325	0.31241
12.8822	12.6293	0.388112	0.310812
12.8827	12.6288	0.389305	0.311107
12.8832	12.6283	0.390249	0.310838
12.8837	12.6279	0.389636	0.312426
12.8841	12.6274	0.388364	0.312706
12.8846	12.6269	0.388623	0.311997
12.8851	12.6264	0.38754	0.308873
12.8856	12.6259	0.389543	0.309447
12.886	12.6255	0.388924	0.310359
12.8865	12.625	0.389425	0.310242
12.887	12.6245	0.388401	0.307741
12.8874	12.624	0.387793	0.305848
12.8879	12.6235	0.390768	0.30552
12.8884	12.6231	0.387732	0.307473
12.8889	12.6226	0.389851	0.305091
12.8893	12.6221	0.388002	0.304571
12.8898	12.6217	0.386205	0.300991
12.8903	12.6212	0.388963	0.301505
12.8907	12.6207	0.387168	0.301624
12.8912	12.6202	0.388129	0.303997
12.8917	12.6198	0.387004	0.301794
12.8922	12.6193	0.386816	0.300155
12.8926	12.6188	0.389846	0.300792
12.8931	12.6184	0.388531	0.301662
12.8936	12.6179	0.387739	0.302433
12.8941	12.6174	0.388022	0.301436
12.8945	12.6169	0.38655	0.300135
12.895	12.6165	0.388758	0.300115
12.8955	12.616	0.388113	0.301
12.8959	12.6155	0.388005	0.302501
12.8964	12.615	0.386099	0.301055
12.8969	12.6146	0.385479	0.297878
12.8974	12.6141	0.387048	0.297985
12.8978	12.6136	0.386185	0.298395
12.8983	12.6131	0.385722	0.299449
12.8988	12.6127	0.386107	0.298345
