# 1304     AichiSR QXAFS
# Start     : 8.9544
# End       : 9.0544
# Dir       : Backward
# Points    : 300
# ScanTime  : 1.01549
# Date      : 13.04.23 22:29
# Ring Cur. : 25.7[mA]
12.7557	12.6118	0.295976	0.228514
12.7562	12.6123	0.294367	0.225813
12.7566	12.6127	0.294983	0.225771
12.7571	12.6132	0.298271	0.228678
12.7576	12.6136	0.298135	0.230098
12.7581	12.6141	0.295096	0.230644
12.7585	12.6146	0.297888	0.230736
12.759	12.6151	0.297034	0.230445
12.7595	12.6155	0.299882	0.231698
12.7599	12.616	0.299093	0.234054
12.7604	12.6165	0.299337	0.234312
12.7609	12.617	0.297056	0.232684
12.7614	12.6175	0.296659	0.231308
12.7618	12.6179	0.300723	0.233636
12.7623	12.6184	0.296176	0.233347
12.7628	12.6189	0.297118	0.233553
12.7632	12.6193	0.297305	0.232112
12.7637	12.6198	0.297952	0.231315
12.7642	12.6203	0.301386	0.233282
12.7647	12.6207	0.301684	0.236507
12.7651	12.6212	0.297639	0.233528
12.7656	12.6217	0.295383	0.232804
12.7661	12.6222	0.299719	0.23351
12.7666	12.6226	0.300265	0.234174
12.767	12.6231	0.300895	0.235689
12.7675	12.6236	0.298342	0.235993
12.768	12.624	0.29935	0.237059
12.7684	12.6245	0.298642	0.235631
12.7689	12.625	0.299493	0.235383
12.7694	12.6255	0.300352	0.239024
12.7699	12.626	0.298433	0.238589
12.7703	12.6264	0.296411	0.237247
12.7708	12.6269	0.296744	0.237639
12.7713	12.6274	0.300569	0.238818
12.7717	12.6279	0.29849	0.240251
12.7722	12.6284	0.29782	0.239356
12.7727	12.6288	0.299302	0.240122
12.7732	12.6293	0.298749	0.238303
12.7736	12.6297	0.301054	0.241066
12.7741	12.6302	0.301636	0.241225
12.7746	12.6307	0.300551	0.2404
12.7751	12.6312	0.298953	0.240075
12.7755	12.6317	0.301167	0.240299
12.776	12.6321	0.303336	0.240888
12.7765	12.6326	0.303607	0.241209
12.7769	12.633	0.302125	0.242275
12.7774	12.6335	0.30018	0.239831
12.7779	12.634	0.300194	0.239478
12.7784	12.6344	0.303326	0.24132
12.7788	12.6349	0.303669	0.242323
12.7793	12.6354	0.302136	0.244139
12.7798	12.6359	0.3002	0.242438
12.7802	12.6364	0.302279	0.242175
12.7807	12.6368	0.306002	0.245584
12.7812	12.6373	0.30596	0.247298
12.7817	12.6378	0.304457	0.247991
12.7821	12.6382	0.303095	0.245656
12.7826	12.6387	0.303627	0.246121
12.7831	12.6392	0.304296	0.24682
12.7836	12.6396	0.305825	0.249066
12.784	12.6401	0.303514	0.248606
12.7845	12.6406	0.302122	0.247332
12.785	12.641	0.304026	0.24773
12.7854	12.6415	0.307509	0.250035
12.7859	12.642	0.306296	0.250184
12.7864	12.6425	0.304704	0.251396
12.7869	12.6429	0.305713	0.24998
12.7873	12.6434	0.304118	0.246392
12.7878	12.6438	0.305697	0.248107
12.7883	12.6443	0.305979	0.250262
12.7887	12.6448	0.305626	0.248968
12.7892	12.6453	0.300355	0.244623
12.7897	12.6458	0.304841	0.244156
12.7902	12.6462	0.307458	0.245274
12.7906	12.6467	0.305146	0.243794
12.7911	12.6472	0.302833	0.242785
12.7916	12.6477	0.307594	0.242183
12.7921	12.6482	0.306606	0.240082
12.7925	12.6486	0.306807	0.238779
12.793	12.6491	0.309634	0.239816
12.7935	12.6496	0.308307	0.23863
12.7939	12.65	0.306298	0.235132
12.7944	12.6505	0.30945	0.233173
12.7949	12.651	0.311289	0.23469
12.7954	12.6515	0.309992	0.232098
12.7958	12.6519	0.308841	0.229724
12.7963	12.6524	0.309436	0.227403
12.7968	12.6529	0.308849	0.224717
12.7972	12.6533	0.310963	0.224132
12.7977	12.6538	0.312333	0.223842
12.7982	12.6543	0.311311	0.221638
12.7987	12.6548	0.310098	0.218498
12.7991	12.6552	0.310277	0.216961
12.7996	12.6557	0.311412	0.216283
12.8001	12.6562	0.312861	0.217207
12.8006	12.6567	0.31137	0.217581
12.801	12.6571	0.310965	0.21497
12.8015	12.6576	0.311532	0.212983
12.802	12.6581	0.312029	0.214549
12.8024	12.6586	0.312728	0.216251
12.8029	12.659	0.312826	0.217066
12.8034	12.6595	0.312714	0.215931
12.8039	12.66	0.310362	0.215598
12.8043	12.6604	0.313704	0.219098
12.8048	12.6609	0.31299	0.220822
12.8053	12.6614	0.313173	0.223843
12.8057	12.6619	0.314343	0.223797
12.8062	12.6623	0.311347	0.223224
12.8067	12.6628	0.315851	0.226108
12.8072	12.6632	0.316372	0.230288
12.8076	12.6637	0.31459	0.232362
12.8081	12.6642	0.315783	0.231589
12.8086	12.6647	0.314564	0.233053
12.8091	12.6651	0.31564	0.234606
12.8095	12.6656	0.316253	0.238237
12.81	12.6661	0.314438	0.241299
12.8105	12.6666	0.314855	0.240519
12.8109	12.667	0.313924	0.241236
12.8114	12.6675	0.317144	0.245798
12.8119	12.668	0.317241	0.249342
12.8124	12.6685	0.314744	0.250906
12.8128	12.6689	0.313259	0.249848
12.8133	12.6694	0.315589	0.252579
12.8138	12.6698	0.317612	0.256024
12.8142	12.6703	0.319069	0.260222
12.8147	12.6708	0.317774	0.261004
12.8152	12.6713	0.315961	0.262804
12.8157	12.6717	0.316544	0.261982
12.8161	12.6722	0.316284	0.264129
12.8166	12.6727	0.318606	0.268169
12.8171	12.6731	0.316509	0.269166
12.8176	12.6736	0.315062	0.267267
12.818	12.6741	0.315431	0.267418
12.8185	12.6745	0.317995	0.270315
12.819	12.675	0.316881	0.272428
12.8194	12.6755	0.316187	0.274223
12.8199	12.676	0.317426	0.273727
12.8204	12.6765	0.31798	0.272094
12.8209	12.677	0.317883	0.273141
12.8213	12.6774	0.319821	0.276479
12.8218	12.6779	0.318058	0.275533
12.8223	12.6784	0.316125	0.273007
12.8227	12.6789	0.317608	0.272892
12.8232	12.6793	0.318587	0.273698
12.8237	12.6798	0.31855	0.272439
12.8242	12.6802	0.316689	0.270688
12.8246	12.6807	0.318219	0.268227
12.8251	12.6812	0.318274	0.264906
12.8256	12.6817	0.317007	0.263256
12.8261	12.6821	0.319656	0.261839
12.8265	12.6826	0.318075	0.261666
12.827	12.6831	0.317845	0.254713
12.8275	12.6835	0.316581	0.252475
12.8279	12.684	0.317365	0.251334
12.8284	12.6845	0.318227	0.250971
12.8289	12.685	0.316861	0.249264
12.8294	12.6855	0.318249	0.244347
12.8298	12.6859	0.317798	0.241178
12.8303	12.6864	0.318346	0.236802
12.8308	12.6869	0.319795	0.236737
12.8312	12.6874	0.320833	0.23342
12.8317	12.6879	0.317917	0.226616
12.8322	12.6883	0.319976	0.225128
12.8327	12.6888	0.321383	0.222927
12.8331	12.6893	0.319765	0.223298
12.8336	12.6897	0.319717	0.221167
12.8341	12.6902	0.320778	0.221185
12.8346	12.6906	0.318765	0.219842
12.835	12.6911	0.318732	0.221618
12.8355	12.6916	0.322248	0.228759
12.836	12.6921	0.320202	0.23245
12.8364	12.6925	0.318624	0.232852
12.8369	12.693	0.320462	0.238041
12.8374	12.6935	0.319324	0.244502
12.8379	12.6939	0.318256	0.248629
12.8383	12.6944	0.319273	0.254103
12.8388	12.6949	0.318954	0.255187
12.8393	12.6953	0.317112	0.253767
12.8397	12.6958	0.319592	0.258347
12.8402	12.6963	0.3219	0.262455
12.8407	12.6968	0.317828	0.260015
12.8412	12.6972	0.317494	0.257273
12.8416	12.6977	0.31987	0.257169
12.8421	12.6982	0.320474	0.254756
12.8426	12.6987	0.318326	0.253349
12.8431	12.6991	0.319634	0.251386
12.8435	12.6996	0.318182	0.245701
12.844	12.7	0.31862	0.240214
12.8445	12.7005	0.319372	0.237568
12.8449	12.701	0.319987	0.235375
12.8454	12.7015	0.319982	0.232125
12.8459	12.702	0.316957	0.226854
12.8464	12.7024	0.320154	0.224616
12.8468	12.7029	0.319529	0.225291
12.8473	12.7033	0.319576	0.226091
12.8478	12.7038	0.319127	0.2278
12.8482	12.7043	0.318961	0.228161
12.8487	12.7048	0.318598	0.232241
12.8492	12.7053	0.319395	0.237939
12.8497	12.7057	0.321048	0.248542
12.8501	12.7062	0.31994	0.25646
12.8506	12.7067	0.319017	0.262665
12.8511	12.7072	0.320996	0.272458
12.8516	12.7077	0.321502	0.285232
12.852	12.7081	0.321569	0.298639
12.8525	12.7086	0.320729	0.311092
12.853	12.7091	0.322049	0.324653
12.8534	12.7095	0.321252	0.336106
12.8539	12.71	0.319454	0.349721
12.8544	12.7105	0.322107	0.367077
12.8549	12.711	0.322521	0.380861
12.8553	12.7114	0.320906	0.388938
12.8558	12.7119	0.321562	0.400691
12.8563	12.7124	0.321741	0.414875
12.8567	12.7128	0.321267	0.423564
12.8572	12.7133	0.32169	0.435072
12.8577	12.7138	0.323276	0.440534
12.8582	12.7142	0.320707	0.446208
12.8586	12.7147	0.318372	0.45432
12.8591	12.7152	0.322411	0.467773
12.8596	12.7157	0.321655	0.476194
12.8601	12.7162	0.320001	0.480013
12.8605	12.7166	0.32312	0.490531
12.861	12.7171	0.321281	0.501578
12.8615	12.7176	0.319526	0.506081
12.8619	12.7181	0.321514	0.512556
12.8624	12.7185	0.321231	0.510482
12.8629	12.719	0.319775	0.50586
12.8634	12.7194	0.319143	0.503946
12.8638	12.7199	0.3222	0.503961
12.8643	12.7204	0.320219	0.499918
12.8648	12.7209	0.318373	0.492349
12.8652	12.7213	0.321018	0.497673
12.8657	12.7218	0.318352	0.50265
12.8662	12.7223	0.31864	0.515671
12.8667	12.7227	0.318395	0.541243
12.8671	12.7232	0.319025	0.570703
12.8676	12.7236	0.318601	0.605823
12.8681	12.7241	0.315413	0.658014
12.8686	12.7246	0.318206	0.718228
12.869	12.7251	0.314555	0.763506
12.8695	12.7256	0.314567	0.797557
12.87	12.726	0.318192	0.833993
12.8704	12.7265	0.317737	0.863598
12.8709	12.727	0.317476	0.885391
12.8714	12.7275	0.319231	0.901271
12.8719	12.7279	0.320247	0.914067
12.8723	12.7284	0.318802	0.916399
12.8728	12.7289	0.317718	0.923375
12.8733	12.7293	0.320581	0.934737
12.8737	12.7298	0.320039	0.938845
12.8742	12.7303	0.318242	0.935573
12.8747	12.7307	0.318808	0.942723
12.8752	12.7312	0.319145	0.948765
12.8756	12.7317	0.31808	0.948176
12.8761	12.7322	0.318829	0.953017
12.8766	12.7326	0.319266	0.954542
12.8771	12.7331	0.319947	0.952689
12.8775	12.7336	0.318954	0.952728
12.878	12.7341	0.321362	0.96419
12.8785	12.7345	0.321806	0.967236
12.8789	12.735	0.31846	0.956411
12.8794	12.7355	0.321508	0.963464
12.8799	12.736	0.320808	0.964951
12.8804	12.7365	0.320101	0.964415
12.8808	12.7369	0.319879	0.968091
12.8813	12.7374	0.320003	0.969267
12.8818	12.7379	0.321132	0.967123
12.8822	12.7384	0.320288	0.969655
12.8827	12.7388	0.323151	0.974423
12.8832	12.7393	0.322966	0.976736
12.8837	12.7398	0.32097	0.971414
12.8841	12.7402	0.32351	0.973674
12.8846	12.7407	0.319925	0.972757
12.8851	12.7412	0.322268	0.976924
12.8856	12.7417	0.323045	0.980211
12.886	12.7421	0.320915	0.97398
12.8865	12.7426	0.321165	0.968841
12.887	12.7431	0.32044	0.97273
12.8874	12.7435	0.321917	0.979952
12.8879	12.744	0.32051	0.979263
12.8884	12.7445	0.320872	0.975378
12.8889	12.7449	0.324884	0.982182
12.8893	12.7454	0.321311	0.977252
12.8898	12.7459	0.322163	0.982135
12.8903	12.7464	0.323469	0.984261
12.8907	12.7469	0.322699	0.984545
12.8912	12.7473	0.32421	0.981281
12.8917	12.7478	0.321053	0.981463
12.8922	12.7483	0.323332	0.987453
12.8926	12.7487	0.322693	0.983235
12.8931	12.7492	0.320925	0.978534
12.8936	12.7497	0.322708	0.980463
12.8941	12.7501	0.322208	0.98231
12.8945	12.7506	0.321186	0.984869
12.895	12.7511	0.321681	0.988392
12.8955	12.7516	0.321963	0.983468
12.8959	12.752	0.321769	0.982264
12.8964	12.7525	0.322613	0.982616
12.8969	12.7529	0.323752	0.987402
12.8974	12.7534	0.322686	0.987377
12.8978	12.7539	0.320706	0.979025
12.8983	12.7543	0.324823	0.986486
12.8988	12.7548	0.323324	0.986197
