# 1304     AichiSR QXAFS
# Start     : 8.9544
# End       : 9.0544
# Dir       : Forward
# Points    : 300
# ScanTime  : 1.01549
# Date      : 13.04.23 22:27
# Ring Cur. : 25.4[mA]
12.7557	12.7558	0.398086	1.22071
12.7562	12.7553	0.397487	1.21672
12.7566	12.7548	0.398296	1.21621
12.7571	12.7543	0.399351	1.21448
12.7576	12.7538	0.400206	1.21862
12.7581	12.7534	0.397774	1.21639
12.7585	12.7529	0.39847	1.21574
12.759	12.7524	0.398507	1.21237
12.7595	12.752	0.400042	1.216
12.7599	12.7515	0.399718	1.21593
12.7604	12.7511	0.398498	1.22176
12.7609	12.7506	0.399306	1.21677
12.7614	12.7501	0.399442	1.21555
12.7618	12.7496	0.400405	1.2162
12.7623	12.7492	0.398782	1.21467
12.7628	12.7487	0.398808	1.21878
12.7632	12.7483	0.3995	1.21603
12.7637	12.7478	0.399375	1.21394
12.7642	12.7473	0.400681	1.21637
12.7647	12.7468	0.400502	1.21554
12.7651	12.7464	0.400488	1.21431
12.7656	12.7459	0.398273	1.21138
12.7661	12.7454	0.399449	1.21243
12.7666	12.7449	0.400228	1.20985
12.767	12.7444	0.398818	1.21662
12.7675	12.744	0.397176	1.21248
12.768	12.7435	0.400275	1.21196
12.7684	12.743	0.400837	1.21031
12.7689	12.7426	0.398468	1.21036
12.7694	12.7421	0.401838	1.21348
12.7699	12.7416	0.398143	1.21551
12.7703	12.7412	0.399156	1.21073
12.7708	12.7407	0.398932	1.20886
12.7713	12.7402	0.399038	1.20752
12.7717	12.7397	0.400886	1.20908
12.7722	12.7393	0.400148	1.20878
12.7727	12.7388	0.397813	1.20821
12.7732	12.7383	0.399	1.20397
12.7736	12.7379	0.40032	1.20602
12.7741	12.7374	0.399217	1.20871
12.7746	12.7369	0.398427	1.2076
12.7751	12.7364	0.397833	1.20315
12.7755	12.736	0.400395	1.20215
12.776	12.7355	0.399524	1.20267
12.7765	12.735	0.399212	1.20148
12.7769	12.7345	0.398827	1.20027
12.7774	12.734	0.398696	1.19735
12.7779	12.7336	0.397788	1.19361
12.7784	12.7331	0.399221	1.19047
12.7788	12.7326	0.399032	1.19245
12.7793	12.7322	0.398201	1.19311
12.7798	12.7317	0.397818	1.18514
12.7802	12.7312	0.399813	1.18267
12.7807	12.7307	0.398454	1.18134
12.7812	12.7302	0.398582	1.17859
12.7817	12.7298	0.397749	1.17468
12.7821	12.7293	0.39795	1.16475
12.7826	12.7289	0.399643	1.16182
12.7831	12.7284	0.397746	1.15697
12.7836	12.7279	0.399142	1.15119
12.784	12.7274	0.397919	1.14363
12.7845	12.727	0.396898	1.12448
12.785	12.7265	0.39865	1.11027
12.7854	12.726	0.396307	1.08816
12.7859	12.7255	0.394693	1.05884
12.7864	12.7251	0.391835	1.02083
12.7869	12.7246	0.392922	0.970755
12.7873	12.7241	0.391603	0.912729
12.7878	12.7236	0.394693	0.854936
12.7883	12.7232	0.395739	0.798199
12.7887	12.7227	0.396698	0.74028
12.7892	12.7222	0.39721	0.689805
12.7897	12.7218	0.398676	0.656072
12.7902	12.7213	0.399643	0.638407
12.7906	12.7208	0.397928	0.622845
12.7911	12.7204	0.397734	0.61664
12.7916	12.7199	0.396334	0.613889
12.7921	12.7194	0.398019	0.617161
12.7925	12.719	0.397253	0.622301
12.793	12.7185	0.398549	0.627582
12.7935	12.718	0.396474	0.631911
12.7939	12.7176	0.397243	0.630547
12.7944	12.7171	0.398577	0.626538
12.7949	12.7166	0.39829	0.621542
12.7954	12.7161	0.397571	0.615701
12.7958	12.7157	0.396187	0.60231
12.7963	12.7152	0.396772	0.588426
12.7968	12.7147	0.396325	0.577096
12.7972	12.7142	0.398538	0.567517
12.7977	12.7137	0.397089	0.560012
12.7982	12.7133	0.395225	0.548659
12.7987	12.7128	0.395644	0.536407
12.7991	12.7123	0.398413	0.525059
12.7996	12.7119	0.397479	0.515153
12.8001	12.7114	0.396837	0.503789
12.8006	12.7109	0.396543	0.489075
12.801	12.7104	0.396308	0.473171
12.8015	12.71	0.396823	0.456236
12.802	12.7095	0.396543	0.441688
12.8024	12.7091	0.395966	0.425987
12.8029	12.7086	0.395837	0.409719
12.8034	12.7081	0.39392	0.389328
12.8039	12.7076	0.395105	0.372841
12.8043	12.7072	0.396088	0.360232
12.8048	12.7067	0.397434	0.346911
12.8053	12.7062	0.39685	0.332149
12.8057	12.7057	0.394867	0.319265
12.8062	12.7052	0.397772	0.30825
12.8067	12.7047	0.395786	0.298417
12.8072	12.7043	0.396065	0.291958
12.8076	12.7038	0.395109	0.286893
12.8081	12.7033	0.394891	0.279775
12.8086	12.7029	0.39746	0.278629
12.8091	12.7024	0.39456	0.277074
12.8095	12.7019	0.395295	0.280036
12.81	12.7015	0.394722	0.281363
12.8105	12.701	0.395242	0.282325
12.8109	12.7005	0.396157	0.287175
12.8114	12.7	0.394304	0.29118
12.8119	12.6996	0.39491	0.298097
12.8124	12.6991	0.39399	0.300938
12.8128	12.6986	0.394278	0.303038
12.8133	12.6982	0.396296	0.30882
12.8138	12.6977	0.395613	0.313936
12.8142	12.6972	0.39382	0.318179
12.8147	12.6968	0.393025	0.320225
12.8152	12.6963	0.393861	0.318718
12.8157	12.6958	0.394845	0.319801
12.8161	12.6953	0.393369	0.318995
12.8166	12.6948	0.393259	0.318354
12.8171	12.6944	0.393598	0.315091
12.8176	12.6939	0.392694	0.310669
12.818	12.6934	0.394586	0.306321
12.8185	12.693	0.395416	0.303185
12.819	12.6925	0.394569	0.298763
12.8194	12.692	0.392429	0.291846
12.8199	12.6916	0.394175	0.285406
12.8204	12.6911	0.395497	0.280001
12.8209	12.6906	0.394179	0.276615
12.8213	12.6902	0.393048	0.275127
12.8218	12.6897	0.392325	0.272057
12.8223	12.6892	0.393134	0.269074
12.8227	12.6888	0.393895	0.270742
12.8232	12.6883	0.393843	0.272807
12.8237	12.6878	0.391707	0.275674
12.8242	12.6874	0.390752	0.278565
12.8246	12.6869	0.390792	0.282068
12.8251	12.6864	0.391878	0.285835
12.8256	12.6859	0.390006	0.290964
12.8261	12.6854	0.390742	0.295341
12.8265	12.685	0.389987	0.297679
12.827	12.6845	0.389414	0.300336
12.8275	12.684	0.392252	0.303535
12.8279	12.6835	0.389562	0.308885
12.8284	12.6831	0.390161	0.310409
12.8289	12.6826	0.391682	0.314258
12.8294	12.6821	0.392838	0.314886
12.8298	12.6817	0.393109	0.31899
12.8303	12.6812	0.390284	0.323126
12.8308	12.6807	0.39165	0.32721
12.8312	12.6802	0.391775	0.328105
12.8317	12.6798	0.390332	0.331159
12.8322	12.6793	0.392873	0.33291
12.8327	12.6788	0.392469	0.336132
12.8331	12.6784	0.392595	0.33698
12.8336	12.6779	0.391692	0.336851
12.8341	12.6774	0.392377	0.337151
12.8346	12.6769	0.393112	0.338705
12.835	12.6765	0.3921	0.339042
12.8355	12.676	0.391475	0.338167
12.836	12.6755	0.392529	0.337345
12.8364	12.675	0.390356	0.335029
12.8369	12.6745	0.392672	0.335184
12.8374	12.6741	0.391749	0.334006
12.8379	12.6736	0.392289	0.334687
12.8383	12.6731	0.39071	0.333271
12.8388	12.6726	0.391655	0.329213
12.8393	12.6722	0.393061	0.330284
12.8397	12.6717	0.391813	0.328806
12.8402	12.6713	0.389992	0.32601
12.8407	12.6708	0.39146	0.324368
12.8412	12.6703	0.391731	0.320132
12.8416	12.6698	0.392217	0.319882
12.8421	12.6694	0.391892	0.31818
12.8426	12.6689	0.390996	0.315353
12.8431	12.6684	0.39201	0.312871
12.8435	12.668	0.391056	0.309782
12.844	12.6675	0.391869	0.306872
12.8445	12.667	0.391042	0.30492
12.8449	12.6666	0.389405	0.303179
12.8454	12.6661	0.389031	0.29882
12.8459	12.6656	0.38998	0.296007
12.8464	12.6651	0.390623	0.29424
12.8468	12.6646	0.390129	0.293414
12.8473	12.6642	0.388598	0.290907
12.8478	12.6637	0.389465	0.287676
12.8482	12.6632	0.389382	0.285068
12.8487	12.6628	0.390205	0.283406
12.8492	12.6623	0.38895	0.283409
12.8497	12.6618	0.388772	0.280974
12.8501	12.6614	0.389332	0.278405
12.8506	12.6609	0.388453	0.275192
12.8511	12.6604	0.38983	0.273171
12.8516	12.66	0.389669	0.273554
12.852	12.6595	0.387451	0.271808
12.8525	12.659	0.388209	0.269116
12.853	12.6586	0.387276	0.267303
12.8534	12.6581	0.388926	0.266227
12.8539	12.6576	0.388136	0.266477
12.8544	12.6571	0.387406	0.267804
12.8549	12.6567	0.386196	0.267303
12.8553	12.6562	0.384739	0.265194
12.8558	12.6557	0.388564	0.267077
12.8563	12.6552	0.388211	0.269684
12.8567	12.6547	0.386106	0.270986
12.8572	12.6543	0.386896	0.270686
12.8577	12.6538	0.386858	0.272002
12.8582	12.6533	0.387692	0.27538
12.8586	12.6528	0.388078	0.277521
12.8591	12.6524	0.387006	0.280965
12.8596	12.6519	0.386948	0.282213
12.8601	12.6515	0.386349	0.282423
12.8605	12.651	0.387854	0.286039
12.861	12.6505	0.387397	0.288404
12.8615	12.65	0.385199	0.292732
12.8619	12.6495	0.386496	0.292887
12.8624	12.6491	0.385403	0.293113
12.8629	12.6486	0.388103	0.297065
12.8634	12.6481	0.385553	0.29867
12.8638	12.6477	0.384836	0.301803
12.8643	12.6472	0.38416	0.302112
12.8648	12.6467	0.384768	0.302364
12.8652	12.6462	0.38391	0.302722
12.8657	12.6457	0.382707	0.304791
12.8662	12.6453	0.379417	0.306297
12.8667	12.6448	0.380716	0.306107
12.8671	12.6443	0.38195	0.307019
12.8676	12.6438	0.383122	0.308982
12.8681	12.6434	0.382405	0.311239
12.8686	12.6429	0.383569	0.313086
12.869	12.6424	0.384932	0.312601
12.8695	12.642	0.384741	0.311347
12.87	12.6415	0.384046	0.313764
12.8704	12.641	0.385726	0.314988
12.8709	12.6406	0.383706	0.315297
12.8714	12.6401	0.382154	0.31186
12.8719	12.6396	0.383928	0.312072
12.8723	12.6392	0.388298	0.314613
12.8728	12.6387	0.38668	0.314767
12.8733	12.6382	0.383618	0.311964
12.8737	12.6378	0.383024	0.310139
12.8742	12.6373	0.383932	0.307952
12.8747	12.6368	0.383855	0.308624
12.8752	12.6363	0.384485	0.309271
12.8756	12.6359	0.382616	0.308114
12.8761	12.6354	0.383698	0.306613
12.8766	12.6349	0.382018	0.305011
12.8771	12.6344	0.384299	0.305961
12.8775	12.634	0.383612	0.30526
12.878	12.6335	0.381951	0.306148
12.8785	12.633	0.382278	0.304103
12.8789	12.6326	0.381904	0.303532
12.8794	12.6321	0.383827	0.303788
12.8799	12.6316	0.382772	0.30563
12.8804	12.6312	0.382	0.30682
12.8808	12.6307	0.383016	0.305088
12.8813	12.6302	0.383478	0.303338
12.8818	12.6297	0.383265	0.305036
12.8822	12.6293	0.382534	0.306768
12.8827	12.6288	0.380214	0.307185
12.8832	12.6283	0.382639	0.306042
12.8837	12.6279	0.382356	0.306249
12.8841	12.6274	0.38338	0.304481
12.8846	12.6269	0.382896	0.30698
12.8851	12.6264	0.381993	0.306366
12.8856	12.6259	0.383485	0.305811
12.886	12.6255	0.383839	0.303435
12.8865	12.625	0.38351	0.303377
12.887	12.6245	0.38303	0.303928
12.8874	12.624	0.382823	0.302306
12.8879	12.6236	0.383956	0.302837
12.8884	12.6231	0.383818	0.300476
12.8889	12.6226	0.385304	0.301416
12.8893	12.6222	0.384889	0.301873
12.8898	12.6217	0.381314	0.300029
12.8903	12.6212	0.384812	0.298542
12.8907	12.6207	0.383862	0.298937
12.8912	12.6202	0.384126	0.29811
12.8917	12.6198	0.383691	0.298924
12.8922	12.6193	0.383089	0.298757
12.8926	12.6189	0.382554	0.297239
12.8931	12.6184	0.383353	0.296951
12.8936	12.6179	0.383108	0.297276
12.8941	12.6174	0.384844	0.301028
12.8945	12.617	0.38137	0.298514
12.895	12.6165	0.383542	0.297009
12.8955	12.616	0.384386	0.295658
12.8959	12.6155	0.383376	0.297988
12.8964	12.615	0.383057	0.297912
12.8969	12.6146	0.382552	0.298455
12.8974	12.6141	0.383515	0.295643
12.8978	12.6136	0.383986	0.29666
12.8983	12.6132	0.384823	0.296323
12.8988	12.6127	0.384983	0.296152
