# 1304     AichiSR QXAFS
# Start     : 8.9544
# End       : 9.0544
# Dir       : Backward
# Points    : 300
# ScanTime  : 1.01549
# Date      : 13.04.23 22:27
# Ring Cur. : 25.4[mA]
12.7557	12.6118	0.298867	0.22772
12.7562	12.6122	0.299016	0.228479
12.7566	12.6127	0.300003	0.231001
12.7571	12.6132	0.299238	0.232219
12.7576	12.6136	0.298368	0.230132
12.7581	12.6141	0.300229	0.230415
12.7585	12.6146	0.30284	0.234042
12.759	12.615	0.300382	0.233988
12.7595	12.6155	0.300099	0.235766
12.7599	12.616	0.301367	0.233992
12.7604	12.6165	0.301401	0.233932
12.7609	12.617	0.302813	0.234533
12.7614	12.6174	0.30333	0.237433
12.7618	12.6179	0.302041	0.237077
12.7623	12.6184	0.300716	0.233829
12.7628	12.6189	0.303265	0.235416
12.7632	12.6193	0.302836	0.235104
12.7637	12.6198	0.303211	0.236731
12.7642	12.6203	0.302724	0.237176
12.7647	12.6207	0.30129	0.235281
12.7651	12.6212	0.301845	0.235983
12.7656	12.6217	0.301435	0.234814
12.7661	12.6222	0.304105	0.239048
12.7666	12.6226	0.301574	0.238273
12.767	12.6231	0.303281	0.235808
12.7675	12.6236	0.302223	0.237028
12.768	12.624	0.303288	0.240398
12.7684	12.6245	0.30466	0.242985
12.7689	12.625	0.301041	0.23941
12.7694	12.6255	0.302749	0.24057
12.7699	12.626	0.301553	0.240222
12.7703	12.6264	0.305354	0.241617
12.7708	12.6269	0.302881	0.243626
12.7713	12.6274	0.303136	0.243817
12.7717	12.6279	0.30172	0.241301
12.7722	12.6283	0.304124	0.243203
12.7727	12.6288	0.304616	0.242962
12.7732	12.6293	0.304081	0.245255
12.7736	12.6297	0.303913	0.245206
12.7741	12.6302	0.303359	0.243724
12.7746	12.6307	0.303609	0.242219
12.7751	12.6312	0.30309	0.243054
12.7755	12.6316	0.305111	0.245404
12.776	12.6321	0.304154	0.244657
12.7765	12.6326	0.302352	0.24204
12.7769	12.633	0.30286	0.240073
12.7774	12.6335	0.306075	0.243256
12.7779	12.634	0.306185	0.245495
12.7784	12.6344	0.303814	0.24481
12.7788	12.6349	0.305153	0.244033
12.7793	12.6354	0.305788	0.243391
12.7798	12.6359	0.305111	0.244838
12.7802	12.6363	0.307646	0.247649
12.7807	12.6368	0.306879	0.248148
12.7812	12.6373	0.302281	0.245066
12.7817	12.6378	0.30557	0.247284
12.7821	12.6382	0.306669	0.247366
12.7826	12.6387	0.307354	0.248986
12.7831	12.6392	0.304808	0.248704
12.7836	12.6396	0.306917	0.249094
12.784	12.6401	0.304907	0.249711
12.7845	12.6406	0.305373	0.248313
12.785	12.641	0.307556	0.252153
12.7854	12.6415	0.307032	0.252557
12.7859	12.642	0.303682	0.247702
12.7864	12.6424	0.305642	0.2471
12.7869	12.6429	0.305943	0.250856
12.7873	12.6434	0.306292	0.251601
12.7878	12.6438	0.305854	0.250077
12.7883	12.6443	0.302495	0.247108
12.7887	12.6448	0.304431	0.245905
12.7892	12.6453	0.304567	0.245377
12.7897	12.6457	0.306587	0.247683
12.7902	12.6462	0.305263	0.246523
12.7906	12.6467	0.304312	0.241908
12.7911	12.6472	0.306471	0.241237
12.7916	12.6477	0.306773	0.242307
12.7921	12.6481	0.307258	0.242485
12.7925	12.6486	0.306665	0.240491
12.793	12.6491	0.307257	0.237969
12.7935	12.6495	0.307174	0.235467
12.7939	12.65	0.305286	0.233625
12.7944	12.6505	0.309459	0.234725
12.7949	12.651	0.309809	0.233569
12.7954	12.6515	0.308195	0.228565
12.7958	12.6519	0.307938	0.226071
12.7963	12.6524	0.309212	0.227103
12.7968	12.6529	0.310401	0.226104
12.7972	12.6533	0.308754	0.22398
12.7977	12.6538	0.308144	0.220633
12.7982	12.6543	0.310038	0.218414
12.7987	12.6547	0.307643	0.217621
12.7991	12.6552	0.31232	0.2186
12.7996	12.6557	0.311431	0.21826
12.8001	12.6562	0.307201	0.213329
12.8006	12.6567	0.309043	0.213051
12.801	12.6571	0.310624	0.214976
12.8015	12.6576	0.30952	0.215023
12.802	12.6581	0.309795	0.215549
12.8024	12.6586	0.309711	0.214012
12.8029	12.659	0.309859	0.213287
12.8034	12.6595	0.309117	0.214405
12.8039	12.6599	0.310121	0.218049
12.8043	12.6604	0.311397	0.218544
12.8048	12.6609	0.309463	0.218452
12.8053	12.6614	0.311447	0.219584
12.8057	12.6618	0.311391	0.222578
12.8062	12.6623	0.31192	0.223872
12.8067	12.6628	0.31145	0.226893
12.8072	12.6632	0.313481	0.227318
12.8076	12.6637	0.312512	0.226937
12.8081	12.6642	0.311072	0.229807
12.8086	12.6646	0.31094	0.233611
12.8091	12.6651	0.313191	0.235647
12.8095	12.6656	0.310615	0.233785
12.81	12.6661	0.313402	0.235874
12.8105	12.6665	0.313634	0.239685
12.8109	12.667	0.312721	0.241191
12.8114	12.6675	0.311279	0.243609
12.8119	12.668	0.312333	0.243937
12.8124	12.6684	0.312358	0.246878
12.8128	12.6689	0.30975	0.24855
12.8133	12.6694	0.314101	0.253066
12.8138	12.6698	0.313571	0.25377
12.8142	12.6703	0.312037	0.254005
12.8147	12.6708	0.31251	0.254781
12.8152	12.6712	0.314628	0.259883
12.8157	12.6717	0.311997	0.25961
12.8161	12.6722	0.310951	0.261412
12.8166	12.6726	0.314938	0.263382
12.8171	12.6731	0.313138	0.262479
12.8176	12.6736	0.31033	0.264624
12.818	12.6741	0.313496	0.268365
12.8185	12.6745	0.314331	0.270469
12.819	12.675	0.311872	0.265192
12.8194	12.6755	0.314162	0.268151
12.8199	12.676	0.314456	0.271337
12.8204	12.6765	0.313677	0.271159
12.8209	12.6769	0.311271	0.269979
12.8213	12.6774	0.31352	0.27057
12.8218	12.6779	0.314194	0.269062
12.8223	12.6784	0.313862	0.270489
12.8227	12.6788	0.313866	0.272277
12.8232	12.6793	0.313817	0.270337
12.8237	12.6798	0.312732	0.266689
12.8242	12.6802	0.313769	0.264779
12.8246	12.6807	0.314856	0.264609
12.8251	12.6812	0.312392	0.262828
12.8256	12.6817	0.311473	0.260945
12.8261	12.6821	0.313233	0.257759
12.8265	12.6826	0.314853	0.254258
12.827	12.6831	0.312014	0.252538
12.8275	12.6835	0.312857	0.252829
12.8279	12.684	0.31493	0.249959
12.8284	12.6845	0.312268	0.244276
12.8289	12.685	0.313328	0.241522
12.8294	12.6854	0.312854	0.240763
12.8298	12.6859	0.313552	0.238258
12.8303	12.6864	0.313588	0.235684
12.8308	12.6869	0.31331	0.230128
12.8312	12.6874	0.315546	0.227346
12.8317	12.6878	0.312935	0.223975
12.8322	12.6883	0.314349	0.223441
12.8327	12.6888	0.314367	0.219249
12.8331	12.6892	0.313567	0.21604
12.8336	12.6897	0.315674	0.215928
12.8341	12.6902	0.314911	0.216948
12.8346	12.6906	0.313075	0.21957
12.835	12.6911	0.314121	0.220495
12.8355	12.6916	0.314872	0.222007
12.836	12.692	0.314318	0.22491
12.8364	12.6925	0.312847	0.230218
12.8369	12.693	0.31487	0.237003
12.8374	12.6934	0.314593	0.240947
12.8379	12.6939	0.31333	0.242475
12.8383	12.6944	0.315268	0.245858
12.8388	12.6948	0.314001	0.251576
12.8393	12.6953	0.312598	0.252807
12.8397	12.6958	0.313402	0.254484
12.8402	12.6963	0.31522	0.25346
12.8407	12.6968	0.314026	0.253636
12.8412	12.6972	0.311814	0.253404
12.8416	12.6977	0.312529	0.253759
12.8421	12.6982	0.313207	0.250726
12.8426	12.6986	0.31423	0.245866
12.8431	12.6991	0.314283	0.244436
12.8435	12.6996	0.310902	0.240371
12.844	12.7	0.311246	0.238085
12.8445	12.7005	0.312048	0.234561
12.8449	12.701	0.313086	0.229359
12.8454	12.7015	0.313391	0.226289
12.8459	12.7019	0.311213	0.22312
12.8464	12.7024	0.312952	0.223123
12.8468	12.7029	0.313809	0.220472
12.8473	12.7033	0.311944	0.219378
12.8478	12.7038	0.313279	0.22115
12.8482	12.7043	0.314337	0.224092
12.8487	12.7048	0.313309	0.230006
12.8492	12.7052	0.313007	0.234266
12.8497	12.7057	0.314837	0.241435
12.8501	12.7062	0.320162	0.25273
12.8506	12.7067	0.315095	0.260852
12.8511	12.7072	0.3122	0.270282
12.8516	12.7076	0.315169	0.281571
12.852	12.7081	0.316189	0.292508
12.8525	12.7086	0.313213	0.302265
12.853	12.7091	0.31334	0.318032
12.8534	12.7095	0.314699	0.332943
12.8539	12.71	0.314438	0.345342
12.8544	12.7105	0.314973	0.358614
12.8549	12.7109	0.316532	0.369976
12.8553	12.7114	0.313925	0.381537
12.8558	12.7119	0.314301	0.395653
12.8563	12.7124	0.314944	0.406362
12.8567	12.7128	0.314636	0.413503
12.8572	12.7133	0.315675	0.422347
12.8577	12.7138	0.316654	0.434338
12.8582	12.7142	0.313899	0.440673
12.8586	12.7147	0.313922	0.446832
12.8591	12.7152	0.316268	0.457217
12.8596	12.7157	0.3171	0.463593
12.8601	12.7161	0.31402	0.471345
12.8605	12.7166	0.31451	0.484931
12.861	12.7171	0.314517	0.492798
12.8615	12.7176	0.314786	0.497078
12.8619	12.718	0.315858	0.501576
12.8624	12.7185	0.314493	0.502182
12.8629	12.719	0.314716	0.502011
12.8634	12.7194	0.313206	0.496549
12.8638	12.7199	0.316754	0.493383
12.8643	12.7204	0.317192	0.48847
12.8648	12.7208	0.315248	0.487941
12.8652	12.7213	0.314263	0.491826
12.8657	12.7218	0.315443	0.49905
12.8662	12.7222	0.314663	0.511086
12.8667	12.7227	0.315822	0.531247
12.8671	12.7232	0.314825	0.565881
12.8676	12.7236	0.313416	0.606519
12.8681	12.7241	0.312516	0.652106
12.8686	12.7246	0.3146	0.710841
12.869	12.7251	0.314361	0.75602
12.8695	12.7255	0.312263	0.790983
12.87	12.726	0.312805	0.829122
12.8704	12.7265	0.316086	0.858983
12.8709	12.727	0.314454	0.872701
12.8714	12.7274	0.316237	0.889652
12.8719	12.7279	0.318806	0.904509
12.8723	12.7284	0.314666	0.908538
12.8728	12.7289	0.313835	0.91405
12.8733	12.7293	0.317795	0.925769
12.8737	12.7298	0.317436	0.929309
12.8742	12.7303	0.317577	0.92909
12.8747	12.7307	0.317631	0.940435
12.8752	12.7312	0.31819	0.942515
12.8756	12.7317	0.317095	0.939771
12.8761	12.7322	0.319685	0.948568
12.8766	12.7326	0.319781	0.953306
12.8771	12.7331	0.315187	0.948717
12.8775	12.7336	0.318239	0.953224
12.878	12.734	0.32103	0.960037
12.8785	12.7345	0.319415	0.958522
12.8789	12.735	0.318775	0.958054
12.8794	12.7355	0.320243	0.964993
12.8799	12.736	0.31914	0.961186
12.8804	12.7364	0.319947	0.963439
12.8808	12.7369	0.322631	0.964346
12.8813	12.7374	0.320451	0.967306
12.8818	12.7379	0.317639	0.965849
12.8822	12.7384	0.31919	0.967665
12.8827	12.7388	0.321281	0.972541
12.8832	12.7393	0.322627	0.970159
12.8837	12.7397	0.320922	0.969407
12.8841	12.7402	0.322116	0.976112
12.8846	12.7407	0.322465	0.973077
12.8851	12.7412	0.322018	0.975016
12.8856	12.7417	0.32324	0.978144
12.886	12.7421	0.322008	0.978355
12.8865	12.7426	0.321673	0.978366
12.887	12.743	0.320365	0.979562
12.8874	12.7435	0.323813	0.982405
12.8879	12.744	0.32293	0.982628
12.8884	12.7445	0.321928	0.980709
12.8889	12.7449	0.324227	0.987939
12.8893	12.7454	0.323693	0.982689
12.8898	12.7459	0.323685	0.982726
12.8903	12.7464	0.325779	0.985751
12.8907	12.7468	0.323148	0.986286
12.8912	12.7473	0.322754	0.986293
12.8917	12.7478	0.32276	0.985586
12.8922	12.7483	0.326527	0.989654
12.8926	12.7487	0.325542	0.987138
12.8931	12.7492	0.324212	0.984872
12.8936	12.7496	0.325778	0.995099
12.8941	12.7501	0.326135	0.98978
12.8945	12.7506	0.325289	0.987377
12.895	12.7511	0.326054	0.99211
12.8955	12.7515	0.325334	0.995958
12.8959	12.752	0.32289	0.992187
12.8964	12.7525	0.323867	0.986125
12.8969	12.7529	0.3278	0.994035
12.8974	12.7534	0.324552	0.988505
12.8978	12.7539	0.324904	0.98831
12.8983	12.7543	0.325066	0.997809
12.8988	12.7548	0.326299	0.996974
