# 1304     AichiSR QXAFS
# Start     : 8.9544
# End       : 9.0544
# Dir       : Forward
# Points    : 300
# ScanTime  : 1.01549
# Date      : 13.04.23 22:25
# Ring Cur. : 25.4[mA]
12.7557	12.7557	0.398937	1.21534
12.7562	12.7552	0.399589	1.21664
12.7566	12.7548	0.400364	1.21757
12.7571	12.7543	0.400038	1.22065
12.7576	12.7538	0.400127	1.21724
12.7581	12.7534	0.399902	1.21797
12.7585	12.7529	0.40153	1.21784
12.759	12.7524	0.399805	1.21847
12.7595	12.752	0.39914	1.21911
12.7599	12.7515	0.399968	1.22143
12.7604	12.751	0.399804	1.21741
12.7609	12.7505	0.400461	1.21806
12.7614	12.7501	0.399844	1.21935
12.7618	12.7496	0.400518	1.21912
12.7623	12.7492	0.399449	1.22066
12.7628	12.7487	0.400176	1.21716
12.7632	12.7482	0.401912	1.21738
12.7637	12.7478	0.400176	1.21647
12.7642	12.7473	0.402521	1.21869
12.7647	12.7468	0.399688	1.22089
12.7651	12.7463	0.40099	1.21577
12.7656	12.7459	0.400409	1.21598
12.7661	12.7454	0.400008	1.21817
12.7666	12.7449	0.400266	1.21916
12.767	12.7444	0.400135	1.21959
12.7675	12.7439	0.399478	1.21538
12.768	12.7435	0.401865	1.21346
12.7684	12.743	0.401283	1.21685
12.7689	12.7425	0.401185	1.21709
12.7694	12.7421	0.399452	1.21779
12.7699	12.7416	0.398907	1.21281
12.7703	12.7411	0.401973	1.21266
12.7708	12.7407	0.399961	1.21577
12.7713	12.7402	0.400712	1.21408
12.7717	12.7397	0.400154	1.2144
12.7722	12.7393	0.400136	1.21163
12.7727	12.7388	0.401729	1.21243
12.7732	12.7383	0.400536	1.21363
12.7736	12.7379	0.401857	1.21492
12.7741	12.7374	0.401956	1.21105
12.7746	12.7369	0.400511	1.20726
12.7751	12.7364	0.401929	1.20718
12.7755	12.7359	0.400798	1.20541
12.776	12.7354	0.399125	1.20814
12.7765	12.735	0.400917	1.20631
12.7769	12.7345	0.398684	1.20118
12.7774	12.734	0.400881	1.20151
12.7779	12.7335	0.400516	1.19852
12.7784	12.7331	0.401938	1.20189
12.7788	12.7326	0.398856	1.20057
12.7793	12.7321	0.39931	1.19371
12.7798	12.7317	0.402244	1.19023
12.7802	12.7312	0.400984	1.19054
12.7807	12.7307	0.401906	1.18652
12.7812	12.7302	0.400215	1.18422
12.7817	12.7298	0.398594	1.17499
12.7821	12.7293	0.401279	1.17196
12.7826	12.7288	0.40018	1.17016
12.7831	12.7284	0.399713	1.16361
12.7836	12.7279	0.399012	1.15474
12.784	12.7274	0.398766	1.14465
12.7845	12.7269	0.400947	1.1323
12.785	12.7265	0.397771	1.11593
12.7854	12.726	0.39636	1.0977
12.7859	12.7255	0.396309	1.06705
12.7864	12.725	0.394794	1.02538
12.7869	12.7246	0.395763	0.980171
12.7873	12.7241	0.395371	0.92667
12.7878	12.7236	0.39565	0.864717
12.7883	12.7231	0.397428	0.802727
12.7887	12.7227	0.398297	0.746912
12.7892	12.7222	0.399844	0.699317
12.7897	12.7218	0.400265	0.665145
12.7902	12.7213	0.39843	0.640847
12.7906	12.7208	0.401123	0.625605
12.7911	12.7203	0.398267	0.616673
12.7916	12.7199	0.399886	0.618929
12.7921	12.7194	0.400624	0.621948
12.7925	12.7189	0.39926	0.627965
12.793	12.7185	0.398873	0.632426
12.7935	12.718	0.398911	0.632925
12.7939	12.7175	0.400181	0.63347
12.7944	12.7171	0.399143	0.633193
12.7949	12.7166	0.400061	0.628139
12.7954	12.7161	0.400374	0.617307
12.7958	12.7156	0.398302	0.602901
12.7963	12.7152	0.399661	0.592221
12.7968	12.7147	0.400759	0.585277
12.7972	12.7142	0.399299	0.573041
12.7977	12.7137	0.397562	0.560739
12.7982	12.7133	0.398833	0.55206
12.7987	12.7128	0.400605	0.542058
12.7991	12.7123	0.40037	0.530068
12.7996	12.7119	0.398799	0.520563
12.8001	12.7114	0.399366	0.506455
12.8006	12.7109	0.39884	0.48998
12.801	12.7104	0.400122	0.477251
12.8015	12.71	0.400022	0.463203
12.802	12.7095	0.397886	0.446655
12.8024	12.709	0.398662	0.42837
12.8029	12.7086	0.39721	0.410909
12.8034	12.7081	0.397388	0.392903
12.8039	12.7076	0.399718	0.378915
12.8043	12.7071	0.398777	0.366353
12.8048	12.7067	0.397895	0.347541
12.8053	12.7062	0.397749	0.332788
12.8057	12.7057	0.398671	0.322615
12.8062	12.7052	0.399572	0.312277
12.8067	12.7047	0.396924	0.301775
12.8072	12.7042	0.398259	0.29446
12.8076	12.7038	0.398168	0.28746
12.8081	12.7033	0.399256	0.283047
12.8086	12.7028	0.39919	0.281206
12.8091	12.7024	0.399094	0.281098
12.8095	12.7019	0.396498	0.279633
12.81	12.7014	0.398018	0.279901
12.8105	12.701	0.398633	0.28442
12.8109	12.7005	0.39807	0.290596
12.8114	12.7	0.396026	0.292556
12.8119	12.6995	0.396056	0.297281
12.8124	12.6991	0.39652	0.300814
12.8128	12.6986	0.397221	0.306411
12.8133	12.6982	0.398637	0.311326
12.8138	12.6977	0.396294	0.315167
12.8142	12.6972	0.39735	0.316733
12.8147	12.6967	0.396581	0.31916
12.8152	12.6963	0.397325	0.320272
12.8157	12.6958	0.397998	0.32339
12.8161	12.6953	0.395102	0.321782
12.8166	12.6948	0.396268	0.320178
12.8171	12.6943	0.396461	0.316667
12.8176	12.6939	0.395715	0.313128
12.818	12.6934	0.395623	0.310798
12.8185	12.6929	0.395373	0.306185
12.819	12.6925	0.395457	0.298555
12.8194	12.692	0.39745	0.292993
12.8199	12.6916	0.396389	0.286496
12.8204	12.6911	0.396291	0.284798
12.8209	12.6906	0.394818	0.279125
12.8213	12.6901	0.395599	0.275624
12.8218	12.6897	0.39549	0.272306
12.8223	12.6892	0.396078	0.27053
12.8227	12.6887	0.394713	0.273665
12.8232	12.6883	0.393757	0.274235
12.8237	12.6878	0.394593	0.275838
12.8242	12.6873	0.39501	0.27828
12.8246	12.6868	0.395363	0.283677
12.8251	12.6864	0.395412	0.288856
12.8256	12.6859	0.392261	0.292714
12.8261	12.6854	0.391318	0.295734
12.8265	12.6849	0.391768	0.29816
12.827	12.6844	0.391401	0.301389
12.8275	12.684	0.391904	0.307352
12.8279	12.6835	0.392628	0.30928
12.8284	12.683	0.392172	0.310663
12.8289	12.6826	0.393005	0.31422
12.8294	12.6821	0.392916	0.317873
12.8298	12.6816	0.392717	0.322063
12.8303	12.6812	0.393734	0.325086
12.8308	12.6807	0.394402	0.327184
12.8312	12.6802	0.394407	0.329829
12.8317	12.6797	0.393608	0.332904
12.8322	12.6793	0.395576	0.335466
12.8327	12.6788	0.394086	0.336911
12.8331	12.6783	0.394892	0.336929
12.8336	12.6779	0.39475	0.337698
12.8341	12.6774	0.394273	0.340326
12.8346	12.6769	0.394557	0.340962
12.835	12.6764	0.39357	0.340728
12.8355	12.676	0.393971	0.33842
12.836	12.6755	0.394091	0.338616
12.8364	12.675	0.392826	0.337636
12.8369	12.6745	0.393498	0.338906
12.8374	12.674	0.392773	0.336884
12.8379	12.6736	0.39414	0.333862
12.8383	12.6731	0.394324	0.331728
12.8388	12.6726	0.395302	0.33324
12.8393	12.6722	0.394888	0.33125
12.8397	12.6717	0.392966	0.331245
12.8402	12.6712	0.392749	0.326584
12.8407	12.6707	0.394758	0.325023
12.8412	12.6703	0.393245	0.323385
12.8416	12.6698	0.392588	0.323041
12.8421	12.6693	0.393858	0.320368
12.8426	12.6689	0.39289	0.315942
12.8431	12.6684	0.393161	0.31272
12.8435	12.668	0.393115	0.31217
12.844	12.6675	0.392672	0.309532
12.8445	12.667	0.392631	0.307088
12.8449	12.6665	0.392348	0.303381
12.8454	12.6661	0.392733	0.300878
12.8459	12.6656	0.392485	0.299433
12.8464	12.6651	0.392209	0.297474
12.8468	12.6646	0.389774	0.294705
12.8473	12.6641	0.390506	0.29144
12.8478	12.6637	0.39343	0.289585
12.8482	12.6632	0.393244	0.288599
12.8487	12.6627	0.392413	0.288745
12.8492	12.6623	0.391566	0.285053
12.8497	12.6618	0.391593	0.281973
12.8501	12.6614	0.393974	0.278897
12.8506	12.6609	0.390337	0.27763
12.8511	12.6604	0.389761	0.276859
12.8516	12.6599	0.390328	0.27429
12.852	12.6595	0.389418	0.269818
12.8525	12.659	0.390669	0.271093
12.853	12.6585	0.390702	0.270122
12.8534	12.6581	0.391843	0.270436
12.8539	12.6576	0.389081	0.269009
12.8544	12.6571	0.389097	0.266881
12.8549	12.6566	0.391227	0.266819
12.8553	12.6562	0.390072	0.268587
12.8558	12.6557	0.38978	0.269273
12.8563	12.6552	0.390635	0.270101
12.8567	12.6547	0.389569	0.270869
12.8572	12.6542	0.390845	0.271855
12.8577	12.6538	0.390349	0.275088
12.8582	12.6533	0.391075	0.279481
12.8586	12.6528	0.389058	0.279904
12.8591	12.6524	0.390096	0.279554
12.8596	12.6519	0.39073	0.281624
12.8601	12.6514	0.389816	0.284525
12.8605	12.6509	0.388463	0.288818
12.861	12.6505	0.389741	0.291245
12.8615	12.65	0.388053	0.290362
12.8619	12.6495	0.388798	0.294506
12.8624	12.6491	0.39081	0.297498
12.8629	12.6486	0.387997	0.299767
12.8634	12.6481	0.387668	0.301244
12.8638	12.6476	0.386751	0.300649
12.8643	12.6472	0.388228	0.303636
12.8648	12.6467	0.386609	0.305181
12.8652	12.6462	0.383713	0.306702
12.8657	12.6457	0.384431	0.306202
12.8662	12.6452	0.383629	0.306302
12.8667	12.6448	0.3837	0.307862
12.8671	12.6443	0.383931	0.311193
12.8676	12.6438	0.384097	0.311467
12.8681	12.6433	0.384681	0.312603
12.8686	12.6429	0.384944	0.312223
12.869	12.6424	0.388173	0.313197
12.8695	12.642	0.38614	0.315401
12.87	12.6415	0.387082	0.3161
12.8704	12.641	0.385822	0.315797
12.8709	12.6405	0.386129	0.313707
12.8714	12.6401	0.386647	0.312946
12.8719	12.6396	0.385839	0.31527
12.8723	12.6391	0.384456	0.315896
12.8728	12.6387	0.386203	0.314339
12.8733	12.6382	0.386047	0.311261
12.8737	12.6377	0.389365	0.312405
12.8742	12.6373	0.390197	0.316308
12.8747	12.6368	0.385491	0.312596
12.8752	12.6363	0.385975	0.309778
12.8756	12.6358	0.385153	0.30765
12.8761	12.6354	0.385708	0.307893
12.8766	12.6349	0.385593	0.309437
12.8771	12.6344	0.385723	0.308807
12.8775	12.6339	0.384459	0.3064
12.878	12.6335	0.385664	0.305186
12.8785	12.633	0.386321	0.306076
12.8789	12.6325	0.384849	0.308072
12.8794	12.6321	0.384637	0.307922
12.8799	12.6316	0.38424	0.307011
12.8804	12.6311	0.383896	0.306602
12.8808	12.6307	0.384861	0.307
12.8813	12.6302	0.385684	0.308336
12.8818	12.6297	0.385295	0.308022
12.8822	12.6292	0.3856	0.307716
12.8827	12.6288	0.384117	0.307596
12.8832	12.6283	0.384383	0.30703
12.8837	12.6278	0.384112	0.307601
12.8841	12.6274	0.382447	0.308288
12.8846	12.6269	0.382972	0.307601
12.8851	12.6264	0.383837	0.305013
12.8856	12.6259	0.385374	0.306633
12.886	12.6254	0.385194	0.308054
12.8865	12.625	0.383893	0.306239
12.887	12.6245	0.384581	0.304156
12.8874	12.624	0.385734	0.303459
12.8879	12.6235	0.386152	0.302725
12.8884	12.6231	0.387015	0.303327
12.8889	12.6226	0.384558	0.303035
12.8893	12.6221	0.385731	0.302771
12.8898	12.6217	0.386059	0.299408
12.8903	12.6212	0.385965	0.299877
12.8907	12.6207	0.38626	0.301591
12.8912	12.6202	0.385312	0.30203
12.8917	12.6198	0.38529	0.29963
12.8922	12.6193	0.386115	0.298954
12.8926	12.6188	0.386952	0.299052
12.8931	12.6184	0.38624	0.301763
12.8936	12.6179	0.385603	0.299437
12.8941	12.6174	0.386185	0.29969
12.8945	12.6169	0.386089	0.298974
12.895	12.6165	0.386029	0.299985
12.8955	12.616	0.387244	0.30169
12.8959	12.6155	0.385826	0.30244
12.8964	12.615	0.384124	0.299727
12.8969	12.6145	0.387111	0.298173
12.8974	12.6141	0.386194	0.299077
12.8978	12.6136	0.385849	0.299044
12.8983	12.6131	0.38541	0.296662
12.8988	12.6127	0.384884	0.29646
