# 1304     AichiSR QXAFS
# Start     : 8.9544
# End       : 9.0544
# Dir       : Forward
# Points    : 300
# ScanTime  : 1.01549
# Date      : 13.04.23 22:22
# Ring Cur. : 25.5[mA]
12.7557	12.7557	0.399703	1.22053
12.7562	12.7552	0.399972	1.21705
12.7566	12.7548	0.400327	1.21413
12.7571	12.7543	0.399395	1.2191
12.7576	12.7538	0.398772	1.21893
12.7581	12.7533	0.398437	1.21661
12.7585	12.7529	0.398355	1.21426
12.759	12.7524	0.399571	1.21391
12.7595	12.752	0.399195	1.21498
12.7599	12.7515	0.397803	1.21902
12.7604	12.751	0.398026	1.214
12.7609	12.7505	0.39737	1.21068
12.7614	12.7501	0.39818	1.20966
12.7618	12.7496	0.398711	1.21318
12.7623	12.7491	0.395793	1.21186
12.7628	12.7487	0.397172	1.21163
12.7632	12.7482	0.397756	1.2109
12.7637	12.7477	0.398888	1.20905
12.7642	12.7473	0.398327	1.21008
12.7647	12.7468	0.397399	1.21062
12.7651	12.7463	0.398747	1.20893
12.7656	12.7458	0.398015	1.20686
12.7661	12.7454	0.398475	1.20658
12.7666	12.7449	0.397577	1.2097
12.767	12.7444	0.396413	1.20868
12.7675	12.7439	0.395662	1.20526
12.768	12.7435	0.395391	1.20102
12.7684	12.743	0.397656	1.2021
12.7689	12.7425	0.39737	1.20411
12.7694	12.7421	0.395356	1.20469
12.7699	12.7416	0.396361	1.20336
12.7703	12.7411	0.396734	1.20025
12.7708	12.7406	0.396436	1.20087
12.7713	12.7402	0.397374	1.20082
12.7717	12.7397	0.395564	1.20066
12.7722	12.7392	0.395713	1.19911
12.7727	12.7388	0.395433	1.19717
12.7732	12.7383	0.396391	1.19489
12.7736	12.7378	0.396097	1.19557
12.7741	12.7374	0.394856	1.1957
12.7746	12.7369	0.395309	1.19487
12.7751	12.7364	0.395591	1.18928
12.7755	12.7359	0.400434	1.20441
12.776	12.7354	0.398496	1.20292
12.7765	12.735	0.395416	1.19057
12.7769	12.7345	0.396193	1.18687
12.7774	12.734	0.395545	1.18534
12.7779	12.7335	0.395839	1.18331
12.7784	12.7331	0.39587	1.18335
12.7788	12.7326	0.395475	1.18006
12.7793	12.7321	0.395362	1.17595
12.7798	12.7317	0.39394	1.17495
12.7802	12.7312	0.395207	1.17226
12.7807	12.7307	0.39487	1.17099
12.7812	12.7302	0.392931	1.16624
12.7817	12.7297	0.393472	1.1613
12.7821	12.7293	0.39463	1.15477
12.7826	12.7288	0.393851	1.15338
12.7831	12.7284	0.394177	1.14392
12.7836	12.7279	0.392304	1.13952
12.784	12.7274	0.3923	1.12856
12.7845	12.7269	0.392752	1.11445
12.785	12.7265	0.393244	1.10026
12.7854	12.726	0.392767	1.08376
12.7859	12.7255	0.389692	1.0515
12.7864	12.725	0.389073	1.01089
12.7869	12.7245	0.388262	0.966836
12.7873	12.7241	0.389797	0.913854
12.7878	12.7236	0.393001	0.858636
12.7883	12.7231	0.39205	0.797498
12.7887	12.7227	0.393327	0.737346
12.7892	12.7222	0.394708	0.689063
12.7897	12.7218	0.395326	0.658694
12.7902	12.7213	0.39615	0.637012
12.7906	12.7208	0.39422	0.622019
12.7911	12.7203	0.394923	0.612314
12.7916	12.7199	0.396059	0.612001
12.7921	12.7194	0.397168	0.614678
12.7925	12.7189	0.395604	0.622215
12.793	12.7185	0.395302	0.627247
12.7935	12.718	0.396009	0.626783
12.7939	12.7175	0.396275	0.625526
12.7944	12.7171	0.39642	0.625928
12.7949	12.7166	0.396762	0.622089
12.7954	12.7161	0.395518	0.613653
12.7958	12.7156	0.396578	0.598874
12.7963	12.7151	0.39707	0.586208
12.7968	12.7147	0.397347	0.577855
12.7972	12.7142	0.397981	0.571587
12.7977	12.7137	0.396332	0.560561
12.7982	12.7132	0.395404	0.548588
12.7987	12.7128	0.396375	0.537334
12.7991	12.7123	0.398215	0.527263
12.7996	12.7118	0.397094	0.517203
12.8001	12.7114	0.396435	0.50556
12.8006	12.7109	0.395965	0.488509
12.801	12.7104	0.395573	0.472419
12.8015	12.7099	0.397194	0.459453
12.802	12.7095	0.39654	0.444016
12.8024	12.709	0.397032	0.428537
12.8029	12.7085	0.396554	0.409531
12.8034	12.7081	0.396814	0.39356
12.8039	12.7076	0.398262	0.376948
12.8043	12.7071	0.399065	0.365076
12.8048	12.7066	0.396154	0.350598
12.8053	12.7062	0.398405	0.33358
12.8057	12.7057	0.398685	0.32145
12.8062	12.7052	0.397231	0.310961
12.8067	12.7047	0.397663	0.302537
12.8072	12.7042	0.395516	0.294486
12.8076	12.7038	0.397348	0.286604
12.8081	12.7033	0.397694	0.281619
12.8086	12.7028	0.399198	0.280366
12.8091	12.7024	0.398955	0.281173
12.8095	12.7019	0.397161	0.281325
12.81	12.7014	0.395377	0.28118
12.8105	12.7009	0.398108	0.2841
12.8109	12.7005	0.397947	0.289198
12.8114	12.7	0.39877	0.294433
12.8119	12.6995	0.396144	0.298668
12.8124	12.6991	0.396781	0.302224
12.8128	12.6986	0.397352	0.305913
12.8133	12.6981	0.398136	0.311237
12.8138	12.6977	0.399246	0.316371
12.8142	12.6972	0.397103	0.317911
12.8147	12.6967	0.39703	0.319712
12.8152	12.6962	0.3982	0.322004
12.8157	12.6958	0.39784	0.322441
12.8161	12.6953	0.39716	0.323298
12.8166	12.6948	0.397841	0.322646
12.8171	12.6943	0.397139	0.318451
12.8176	12.6939	0.397626	0.314
12.818	12.6934	0.39732	0.310428
12.8185	12.6929	0.39941	0.307393
12.819	12.6925	0.396889	0.300832
12.8194	12.692	0.396236	0.293999
12.8199	12.6915	0.398409	0.288933
12.8204	12.6911	0.398787	0.283011
12.8209	12.6906	0.398497	0.281083
12.8213	12.6901	0.399066	0.276997
12.8218	12.6897	0.397431	0.27353
12.8223	12.6892	0.398885	0.272435
12.8227	12.6887	0.397131	0.273535
12.8232	12.6883	0.397086	0.276245
12.8237	12.6878	0.396384	0.279408
12.8242	12.6873	0.395582	0.280562
12.8246	12.6868	0.396297	0.284577
12.8251	12.6864	0.39628	0.287961
12.8256	12.6859	0.39763	0.294553
12.8261	12.6854	0.395742	0.298278
12.8265	12.6849	0.39511	0.301122
12.827	12.6844	0.396737	0.303931
12.8275	12.684	0.394385	0.307965
12.8279	12.6835	0.396032	0.312676
12.8284	12.683	0.394681	0.314521
12.8289	12.6826	0.395272	0.31636
12.8294	12.6821	0.397103	0.319009
12.8298	12.6816	0.396552	0.324061
12.8303	12.6812	0.396899	0.328388
12.8308	12.6807	0.396019	0.330884
12.8312	12.6802	0.39495	0.332195
12.8317	12.6797	0.398239	0.335023
12.8322	12.6793	0.398552	0.338955
12.8327	12.6788	0.398498	0.342107
12.8331	12.6783	0.395641	0.342849
12.8336	12.6779	0.395633	0.340821
12.8341	12.6774	0.398607	0.343147
12.8346	12.6769	0.397241	0.34334
12.835	12.6764	0.39857	0.344866
12.8355	12.6759	0.397831	0.342788
12.836	12.6755	0.397814	0.341294
12.8364	12.675	0.397687	0.34009
12.8369	12.6745	0.39764	0.341334
12.8374	12.674	0.39771	0.341359
12.8379	12.6735	0.39615	0.338919
12.8383	12.6731	0.39638	0.335467
12.8388	12.6726	0.397765	0.335406
12.8393	12.6722	0.395934	0.33373
12.8397	12.6717	0.395979	0.334242
12.8402	12.6712	0.39579	0.330366
12.8407	12.6707	0.395031	0.327645
12.8412	12.6703	0.39796	0.325419
12.8416	12.6698	0.397623	0.325028
12.8421	12.6693	0.397075	0.323216
12.8426	12.6689	0.396912	0.319721
12.8431	12.6684	0.394761	0.31481
12.8435	12.6679	0.397947	0.31356
12.844	12.6675	0.397061	0.311755
12.8445	12.667	0.396078	0.309509
12.8449	12.6665	0.396592	0.307775
12.8454	12.666	0.396607	0.303823
12.8459	12.6656	0.398146	0.30019
12.8464	12.6651	0.396822	0.300407
12.8468	12.6646	0.39768	0.300038
12.8473	12.6641	0.396432	0.296984
12.8478	12.6637	0.394411	0.290675
12.8482	12.6632	0.395775	0.290253
12.8487	12.6627	0.395798	0.287561
12.8492	12.6623	0.394941	0.286686
12.8497	12.6618	0.394097	0.284083
12.8501	12.6613	0.395127	0.280118
12.8506	12.6609	0.396168	0.278632
12.8511	12.6604	0.395977	0.279268
12.8516	12.6599	0.395725	0.278685
12.852	12.6595	0.393657	0.274956
12.8525	12.659	0.392802	0.272508
12.853	12.6585	0.396819	0.272035
12.8534	12.6581	0.395285	0.271971
12.8539	12.6576	0.393322	0.271541
12.8544	12.6571	0.393634	0.271694
12.8549	12.6566	0.392289	0.26967
12.8553	12.6561	0.395055	0.270577
12.8558	12.6557	0.393631	0.272251
12.8563	12.6552	0.393294	0.275089
12.8567	12.6547	0.393618	0.274704
12.8572	12.6542	0.392565	0.275503
12.8577	12.6537	0.394513	0.278265
12.8582	12.6533	0.395453	0.280036
12.8586	12.6528	0.394603	0.283378
12.8591	12.6524	0.393885	0.285165
12.8596	12.6519	0.394268	0.284703
12.8601	12.6514	0.393951	0.286341
12.8605	12.6509	0.394419	0.291231
12.861	12.6505	0.393482	0.294724
12.8615	12.65	0.39353	0.29486
12.8619	12.6495	0.392986	0.298052
12.8624	12.649	0.394694	0.300354
12.8629	12.6486	0.392362	0.302648
12.8634	12.6481	0.392699	0.305503
12.8638	12.6476	0.39007	0.305641
12.8643	12.6472	0.389906	0.306204
12.8648	12.6467	0.391438	0.307725
12.8652	12.6462	0.391561	0.311496
12.8657	12.6457	0.389872	0.312437
12.8662	12.6452	0.388249	0.312764
12.8667	12.6448	0.388358	0.311313
12.8671	12.6443	0.391631	0.312911
12.8676	12.6438	0.390822	0.316098
12.8681	12.6433	0.390331	0.317653
12.8686	12.6429	0.391331	0.318776
12.869	12.6424	0.391014	0.316368
12.8695	12.642	0.392486	0.318157
12.87	12.6415	0.392645	0.31981
12.8704	12.641	0.391702	0.321617
12.8709	12.6405	0.392675	0.320507
12.8714	12.6401	0.39228	0.318502
12.8719	12.6396	0.393625	0.318015
12.8723	12.6391	0.391643	0.320569
12.8728	12.6387	0.391571	0.31975
12.8733	12.6382	0.392338	0.318323
12.8737	12.6377	0.390792	0.316204
12.8742	12.6373	0.391209	0.315179
12.8747	12.6368	0.390959	0.315764
12.8752	12.6363	0.39244	0.316024
12.8756	12.6358	0.391207	0.313422
12.8761	12.6354	0.389946	0.312579
12.8766	12.6349	0.391835	0.31138
12.8771	12.6344	0.390362	0.313442
12.8775	12.6339	0.390141	0.313389
12.878	12.6335	0.39053	0.31191
12.8785	12.633	0.390459	0.309817
12.8789	12.6325	0.39143	0.309426
12.8794	12.6321	0.391068	0.311515
12.8799	12.6316	0.391501	0.3115
12.8804	12.6311	0.391233	0.312238
12.8808	12.6306	0.391039	0.310846
12.8813	12.6302	0.390844	0.310187
12.8818	12.6297	0.389872	0.312738
12.8822	12.6292	0.389507	0.313327
12.8827	12.6288	0.389891	0.312098
12.8832	12.6283	0.38978	0.310207
12.8837	12.6278	0.390722	0.311022
12.8841	12.6273	0.389749	0.312759
12.8846	12.6269	0.390567	0.312423
12.8851	12.6264	0.389332	0.310938
12.8856	12.6259	0.389174	0.308322
12.886	12.6254	0.390626	0.311446
12.8865	12.625	0.390029	0.310319
12.887	12.6245	0.389513	0.309568
12.8874	12.624	0.388102	0.307929
12.8879	12.6235	0.389122	0.305599
12.8884	12.6231	0.389195	0.305556
12.8889	12.6226	0.387993	0.305098
12.8893	12.6221	0.388631	0.304844
12.8898	12.6217	0.386759	0.303551
12.8903	12.6212	0.387917	0.301377
12.8907	12.6207	0.390325	0.301966
12.8912	12.6202	0.389026	0.302449
12.8917	12.6197	0.388325	0.303374
12.8922	12.6193	0.389202	0.302217
12.8926	12.6188	0.386666	0.299881
12.8931	12.6184	0.388715	0.300618
12.8936	12.6179	0.388061	0.302825
12.8941	12.6174	0.386472	0.301341
12.8945	12.6169	0.385191	0.300783
12.895	12.6165	0.385698	0.299501
12.8955	12.616	0.387283	0.301856
12.8959	12.6155	0.388226	0.301215
12.8964	12.615	0.386548	0.299876
12.8969	12.6145	0.385817	0.299455
12.8974	12.6141	0.386338	0.297452
12.8978	12.6136	0.387306	0.299085
12.8983	12.6131	0.386004	0.297413
12.8988	12.6127	0.385935	0.297806
