# 1304     AichiSR QXAFS
# Start     : 8.9544
# End       : 9.0544
# Dir       : Forward
# Points    : 300
# ScanTime  : 1.01549
# Date      : 13.04.23 22:21
# Ring Cur. : 25.5[mA]
12.7557	12.7557	0.398802	1.22009
12.7562	12.7552	0.398771	1.21923
12.7566	12.7548	0.398022	1.21479
12.7571	12.7543	0.399413	1.21552
12.7576	12.7538	0.399694	1.21712
12.7581	12.7533	0.397885	1.21496
12.7585	12.7529	0.397361	1.21745
12.759	12.7524	0.398926	1.21392
12.7595	12.752	0.400795	1.21218
12.7599	12.7515	0.399541	1.21326
12.7604	12.751	0.399279	1.21816
12.7609	12.7505	0.398516	1.21494
12.7614	12.7501	0.397532	1.20941
12.7618	12.7496	0.399213	1.2112
12.7623	12.7491	0.398072	1.21315
12.7628	12.7487	0.398217	1.21474
12.7632	12.7482	0.397386	1.21017
12.7637	12.7477	0.397923	1.2095
12.7642	12.7473	0.398554	1.20716
12.7647	12.7468	0.398015	1.21227
12.7651	12.7463	0.398105	1.21199
12.7656	12.7458	0.39691	1.20752
12.7661	12.7454	0.395764	1.2073
12.7666	12.7449	0.397191	1.20264
12.767	12.7444	0.397626	1.20849
12.7675	12.7439	0.396244	1.20586
12.768	12.7435	0.396171	1.20425
12.7684	12.743	0.395844	1.20349
12.7689	12.7425	0.3978	1.20379
12.7694	12.7421	0.396106	1.20466
12.7699	12.7416	0.39644	1.20394
12.7703	12.7411	0.395293	1.2035
12.7708	12.7406	0.395592	1.19821
12.7713	12.7402	0.396975	1.19905
12.7717	12.7397	0.397129	1.19978
12.7722	12.7392	0.396257	1.19872
12.7727	12.7388	0.39615	1.19709
12.7732	12.7383	0.395175	1.19142
12.7736	12.7378	0.395921	1.19315
12.7741	12.7374	0.395848	1.19856
12.7746	12.7369	0.395494	1.19593
12.7751	12.7364	0.393436	1.19068
12.7755	12.7359	0.392685	1.18818
12.776	12.7354	0.39634	1.18931
12.7765	12.7349	0.396399	1.18685
12.7769	12.7345	0.395032	1.18806
12.7774	12.734	0.393788	1.18446
12.7779	12.7335	0.39327	1.17964
12.7784	12.733	0.398656	1.18596
12.7788	12.7326	0.399099	1.19097
12.7793	12.7321	0.394985	1.181
12.7798	12.7317	0.394607	1.17479
12.7802	12.7312	0.393861	1.16922
12.7807	12.7307	0.39432	1.16837
12.7812	12.7302	0.393496	1.16514
12.7817	12.7297	0.394584	1.15961
12.7821	12.7293	0.393713	1.15488
12.7826	12.7288	0.393598	1.14728
12.7831	12.7284	0.394104	1.1412
12.7836	12.7279	0.394583	1.13439
12.784	12.7274	0.393381	1.12751
12.7845	12.7269	0.392713	1.11369
12.785	12.7265	0.39077	1.09321
12.7854	12.726	0.38919	1.0717
12.7859	12.7255	0.389896	1.04577
12.7864	12.725	0.388747	1.00714
12.7869	12.7245	0.387723	0.958572
12.7873	12.7241	0.387303	0.90337
12.7878	12.7236	0.390844	0.844708
12.7883	12.7231	0.390238	0.787976
12.7887	12.7227	0.39293	0.734961
12.7892	12.7222	0.392304	0.687056
12.7897	12.7218	0.392114	0.648913
12.7902	12.7213	0.394359	0.628906
12.7906	12.7208	0.39465	0.617936
12.7911	12.7203	0.393781	0.612065
12.7916	12.7199	0.394417	0.611025
12.7921	12.7194	0.392675	0.611535
12.7925	12.7189	0.395985	0.617094
12.793	12.7185	0.395949	0.622434
12.7935	12.718	0.394843	0.627921
12.7939	12.7175	0.394654	0.628039
12.7944	12.7171	0.393135	0.622149
12.7949	12.7166	0.39534	0.618359
12.7954	12.7161	0.397175	0.612068
12.7958	12.7156	0.39421	0.60141
12.7963	12.7151	0.395233	0.587212
12.7968	12.7147	0.395232	0.573477
12.7972	12.7142	0.395117	0.564149
12.7977	12.7137	0.39609	0.557129
12.7982	12.7132	0.395635	0.547899
12.7987	12.7128	0.393338	0.53589
12.7991	12.7123	0.39572	0.520716
12.7996	12.7118	0.395547	0.512511
12.8001	12.7114	0.39608	0.500996
12.8006	12.7109	0.395337	0.48762
12.801	12.7104	0.395589	0.472067
12.8015	12.7099	0.395264	0.456023
12.802	12.7095	0.3951	0.439942
12.8024	12.709	0.396962	0.425141
12.8029	12.7085	0.396003	0.411309
12.8034	12.7081	0.3965	0.392846
12.8039	12.7076	0.395397	0.373354
12.8043	12.7071	0.397803	0.360797
12.8048	12.7066	0.396962	0.347287
12.8053	12.7062	0.394507	0.33367
12.8057	12.7057	0.395798	0.320073
12.8062	12.7052	0.395719	0.307473
12.8067	12.7047	0.396915	0.298731
12.8072	12.7042	0.396802	0.292888
12.8076	12.7038	0.39645	0.287678
12.8081	12.7033	0.396671	0.281865
12.8086	12.7028	0.396636	0.278657
12.8091	12.7024	0.39618	0.277591
12.8095	12.7019	0.397308	0.280223
12.81	12.7014	0.395342	0.282466
12.8105	12.7009	0.396643	0.284429
12.8109	12.7005	0.397635	0.287345
12.8114	12.7	0.395995	0.291566
12.8119	12.6995	0.397141	0.298427
12.8124	12.6991	0.397018	0.30299
12.8128	12.6986	0.396737	0.306386
12.8133	12.6981	0.395403	0.310086
12.8138	12.6977	0.398086	0.313574
12.8142	12.6972	0.397899	0.317783
12.8147	12.6967	0.395879	0.320218
12.8152	12.6962	0.397323	0.321354
12.8157	12.6958	0.395385	0.320631
12.8161	12.6953	0.397201	0.320847
12.8166	12.6948	0.397339	0.320561
12.8171	12.6943	0.395623	0.318276
12.8176	12.6939	0.396183	0.314286
12.818	12.6934	0.395459	0.308459
12.8185	12.6929	0.396647	0.302793
12.819	12.6925	0.397287	0.300248
12.8194	12.692	0.395455	0.294674
12.8199	12.6915	0.396651	0.288168
12.8204	12.6911	0.39723	0.281005
12.8209	12.6906	0.396414	0.277024
12.8213	12.6901	0.395849	0.277189
12.8218	12.6897	0.394729	0.273841
12.8223	12.6892	0.395432	0.272229
12.8227	12.6887	0.395875	0.271063
12.8232	12.6883	0.39858	0.275019
12.8237	12.6878	0.398393	0.279215
12.8242	12.6873	0.394754	0.28165
12.8246	12.6868	0.393734	0.284084
12.8251	12.6864	0.39628	0.286067
12.8256	12.6859	0.395744	0.291429
12.8261	12.6854	0.39581	0.296603
12.8265	12.6849	0.393073	0.302271
12.827	12.6844	0.393343	0.303052
12.8275	12.684	0.393779	0.306691
12.8279	12.6835	0.396013	0.309558
12.8284	12.683	0.396964	0.314661
12.8289	12.6826	0.395289	0.318354
12.8294	12.6821	0.396269	0.3182
12.8298	12.6816	0.394638	0.32188
12.8303	12.6811	0.395568	0.325577
12.8308	12.6807	0.397183	0.330026
12.8312	12.6802	0.395645	0.333751
12.8317	12.6797	0.395267	0.335622
12.8322	12.6793	0.397334	0.335576
12.8327	12.6788	0.39652	0.338095
12.8331	12.6783	0.398306	0.340913
12.8336	12.6779	0.3956	0.343488
12.8341	12.6774	0.396851	0.341751
12.8346	12.6769	0.397849	0.341207
12.835	12.6764	0.396252	0.34184
12.8355	12.6759	0.396771	0.342438
12.836	12.6755	0.396438	0.341819
12.8364	12.675	0.396099	0.339347
12.8369	12.6745	0.397368	0.338919
12.8374	12.674	0.397885	0.337422
12.8379	12.6735	0.396947	0.337621
12.8383	12.6731	0.396413	0.336941
12.8388	12.6726	0.395434	0.334966
12.8393	12.6721	0.397556	0.332747
12.8397	12.6717	0.396033	0.331779
12.8402	12.6712	0.397295	0.33001
12.8407	12.6707	0.396266	0.32815
12.8412	12.6703	0.396559	0.325159
12.8416	12.6698	0.396796	0.322524
12.8421	12.6693	0.394874	0.321897
12.8426	12.6689	0.395638	0.319198
12.8431	12.6684	0.39531	0.316577
12.8435	12.6679	0.394835	0.313219
12.844	12.6675	0.397305	0.308881
12.8445	12.667	0.395587	0.307823
12.8449	12.6665	0.396362	0.307487
12.8454	12.666	0.396159	0.30425
12.8459	12.6656	0.395215	0.300494
12.8464	12.6651	0.395738	0.298499
12.8468	12.6646	0.396644	0.296805
12.8473	12.6641	0.395003	0.293393
12.8478	12.6637	0.394246	0.292094
12.8482	12.6632	0.396139	0.289121
12.8487	12.6627	0.395392	0.287896
12.8492	12.6623	0.395649	0.283751
12.8497	12.6618	0.39409	0.285809
12.8501	12.6613	0.394672	0.283992
12.8506	12.6609	0.394131	0.279442
12.8511	12.6604	0.394223	0.27721
12.8516	12.6599	0.394489	0.276535
12.852	12.6594	0.394552	0.276609
12.8525	12.659	0.392331	0.272881
12.853	12.6585	0.393917	0.271573
12.8534	12.6581	0.392932	0.270072
12.8539	12.6576	0.393251	0.269973
12.8544	12.6571	0.394093	0.271735
12.8549	12.6566	0.392991	0.27138
12.8553	12.6561	0.39212	0.269858
12.8558	12.6557	0.393158	0.270948
12.8563	12.6552	0.394512	0.273223
12.8567	12.6547	0.393418	0.275196
12.8572	12.6542	0.392226	0.276367
12.8577	12.6537	0.393306	0.277456
12.8582	12.6533	0.393829	0.279756
12.8586	12.6528	0.392484	0.281554
12.8591	12.6523	0.393946	0.285502
12.8596	12.6519	0.393295	0.286791
12.8601	12.6514	0.392729	0.288328
12.8605	12.6509	0.392798	0.289846
12.861	12.6504	0.392664	0.293926
12.8615	12.65	0.392517	0.296726
12.8619	12.6495	0.392418	0.299029
12.8624	12.649	0.392464	0.300312
12.8629	12.6486	0.394078	0.301918
12.8634	12.6481	0.391949	0.304206
12.8638	12.6476	0.391026	0.305994
12.8643	12.6471	0.389795	0.306406
12.8648	12.6467	0.388814	0.30789
12.8652	12.6462	0.388361	0.307927
12.8657	12.6457	0.389925	0.31005
12.8662	12.6452	0.388862	0.312224
12.8667	12.6448	0.387717	0.312455
12.8671	12.6443	0.387523	0.312303
12.8676	12.6438	0.389597	0.313188
12.8681	12.6433	0.388631	0.315491
12.8686	12.6429	0.389956	0.315831
12.869	12.6424	0.390456	0.317993
12.8695	12.6419	0.391315	0.317237
12.87	12.6415	0.392011	0.318105
12.8704	12.641	0.391879	0.318643
12.8709	12.6405	0.392496	0.320156
12.8714	12.6401	0.390371	0.318628
12.8719	12.6396	0.3914	0.317266
12.8723	12.6391	0.392116	0.318321
12.8728	12.6387	0.391417	0.318018
12.8733	12.6382	0.38996	0.317535
12.8737	12.6377	0.390202	0.316307
12.8742	12.6373	0.391083	0.31486
12.8747	12.6368	0.390032	0.312927
12.8752	12.6363	0.390665	0.312868
12.8756	12.6358	0.390161	0.313151
12.8761	12.6354	0.38767	0.313936
12.8766	12.6349	0.389805	0.311602
12.8771	12.6344	0.391419	0.310535
12.8775	12.6339	0.389653	0.311753
12.878	12.6335	0.389903	0.312138
12.8785	12.633	0.389771	0.310431
12.8789	12.6325	0.388865	0.309502
12.8794	12.6321	0.390477	0.309171
12.8799	12.6316	0.391188	0.310717
12.8804	12.6311	0.389435	0.31176
12.8808	12.6306	0.388454	0.311053
12.8813	12.6302	0.388061	0.310125
12.8818	12.6297	0.391777	0.309357
12.8822	12.6292	0.388623	0.309658
12.8827	12.6288	0.389025	0.311792
12.8832	12.6283	0.387353	0.311075
12.8837	12.6278	0.3888	0.310133
12.8841	12.6274	0.390585	0.310625
12.8846	12.6269	0.388992	0.310576
12.8851	12.6264	0.389674	0.31129
12.8856	12.6259	0.387878	0.311281
12.886	12.6254	0.388947	0.308067
12.8865	12.6249	0.390674	0.307786
12.887	12.6245	0.386969	0.3074
12.8874	12.624	0.387483	0.307663
12.8879	12.6235	0.388622	0.306381
12.8884	12.623	0.386516	0.304492
12.8889	12.6226	0.388158	0.303329
12.8893	12.6221	0.387929	0.303655
12.8898	12.6217	0.387157	0.303608
12.8903	12.6212	0.387133	0.302287
12.8907	12.6207	0.386522	0.300618
12.8912	12.6202	0.389131	0.300571
12.8917	12.6197	0.387427	0.301405
12.8922	12.6193	0.38657	0.302747
12.8926	12.6188	0.387183	0.301723
12.8931	12.6184	0.385829	0.299217
12.8936	12.6179	0.387273	0.299809
12.8941	12.6174	0.387192	0.300826
12.8945	12.6169	0.385223	0.302132
12.895	12.6164	0.382867	0.29988
12.8955	12.616	0.385632	0.298511
12.8959	12.6155	0.386866	0.299727
12.8964	12.615	0.38624	0.299335
12.8969	12.6145	0.385045	0.298819
12.8974	12.6141	0.384709	0.299041
12.8978	12.6136	0.385766	0.297323
12.8983	12.6131	0.386897	0.296595
12.8988	12.6127	0.385727	0.297385
