# 1304     AichiSR QXAFS
# Start     : 8.9544
# End       : 9.0544
# Dir       : Forward
# Points    : 300
# ScanTime  : 1.01549
# Date      : 13.04.23 22:25
# Ring Cur. : 25.4[mA]
12.7557	12.7557	0.402751	1.23304
12.7562	12.7552	0.402099	1.23071
12.7566	12.7548	0.402376	1.22757
12.7571	12.7543	0.403064	1.2255
12.7576	12.7538	0.402685	1.22646
12.7581	12.7534	0.403166	1.22778
12.7585	12.7529	0.40136	1.22787
12.759	12.7524	0.400925	1.22159
12.7595	12.752	0.401756	1.22216
12.7599	12.7515	0.402719	1.22319
12.7604	12.751	0.402683	1.22687
12.7609	12.7506	0.402681	1.22615
12.7614	12.7501	0.402226	1.2227
12.7618	12.7496	0.402381	1.22232
12.7623	12.7492	0.40253	1.22117
12.7628	12.7487	0.402071	1.22127
12.7632	12.7482	0.40019	1.22485
12.7637	12.7478	0.401096	1.22267
12.7642	12.7473	0.401548	1.22065
12.7647	12.7468	0.401038	1.21978
12.7651	12.7463	0.401437	1.22394
12.7656	12.7459	0.401089	1.22016
12.7661	12.7454	0.401809	1.21813
12.7666	12.7449	0.402893	1.21821
12.767	12.7444	0.400298	1.22072
12.7675	12.7439	0.40033	1.22102
12.768	12.7435	0.400233	1.22079
12.7684	12.743	0.400247	1.21647
12.7689	12.7425	0.402857	1.21367
12.7694	12.7421	0.400932	1.21521
12.7699	12.7416	0.400689	1.21716
12.7703	12.7411	0.398474	1.21492
12.7708	12.7407	0.401373	1.21419
12.7713	12.7402	0.400568	1.21163
12.7717	12.7397	0.400443	1.21109
12.7722	12.7393	0.39944	1.2103
12.7727	12.7388	0.398944	1.21161
12.7732	12.7383	0.399724	1.20707
12.7736	12.7379	0.399833	1.20471
12.7741	12.7374	0.398984	1.20403
12.7746	12.7369	0.399748	1.20859
12.7751	12.7364	0.398617	1.20393
12.7755	12.7359	0.399492	1.20088
12.776	12.7355	0.399394	1.19897
12.7765	12.735	0.39971	1.20135
12.7769	12.7345	0.398266	1.20102
12.7774	12.734	0.397968	1.20067
12.7779	12.7335	0.400355	1.19578
12.7784	12.7331	0.400164	1.19157
12.7788	12.7326	0.399069	1.19205
12.7793	12.7321	0.399509	1.19123
12.7798	12.7317	0.398272	1.18836
12.7802	12.7312	0.39774	1.18307
12.7807	12.7307	0.400151	1.1802
12.7812	12.7302	0.398825	1.17811
12.7817	12.7298	0.398721	1.17603
12.7821	12.7293	0.396745	1.17074
12.7826	12.7288	0.397443	1.16081
12.7831	12.7284	0.397886	1.15592
12.7836	12.7279	0.397095	1.14799
12.784	12.7274	0.397155	1.14071
12.7845	12.7269	0.395422	1.12405
12.785	12.7265	0.395472	1.10514
12.7854	12.726	0.397297	1.08603
12.7859	12.7255	0.393471	1.05637
12.7864	12.725	0.393393	1.02019
12.7869	12.7246	0.390817	0.975332
12.7873	12.7241	0.392746	0.918408
12.7878	12.7236	0.393185	0.856317
12.7883	12.7231	0.394466	0.79699
12.7887	12.7227	0.395191	0.744771
12.7892	12.7222	0.396407	0.69318
12.7897	12.7218	0.395277	0.656016
12.7902	12.7213	0.398612	0.635432
12.7906	12.7208	0.396437	0.621708
12.7911	12.7203	0.396674	0.616424
12.7916	12.7199	0.396878	0.615083
12.7921	12.7194	0.395564	0.616079
12.7925	12.7189	0.398394	0.619562
12.793	12.7185	0.396495	0.625671
12.7935	12.718	0.395437	0.630381
12.7939	12.7175	0.397004	0.628231
12.7944	12.7171	0.39546	0.625196
12.7949	12.7166	0.397541	0.620564
12.7954	12.7161	0.396775	0.611917
12.7958	12.7156	0.395125	0.601492
12.7963	12.7152	0.396051	0.588572
12.7968	12.7147	0.395627	0.575899
12.7972	12.7142	0.396882	0.567011
12.7977	12.7137	0.395951	0.558186
12.7982	12.7133	0.395024	0.547972
12.7987	12.7128	0.396235	0.538127
12.7991	12.7123	0.39392	0.522888
12.7996	12.7119	0.396792	0.513578
12.8001	12.7114	0.394659	0.500665
12.8006	12.7109	0.396337	0.488668
12.801	12.7104	0.394387	0.473992
12.8015	12.71	0.394344	0.455771
12.802	12.7095	0.395432	0.439663
12.8024	12.709	0.394516	0.425964
12.8029	12.7086	0.394812	0.409095
12.8034	12.7081	0.394146	0.391519
12.8039	12.7076	0.395097	0.372999
12.8043	12.7071	0.396339	0.358341
12.8048	12.7067	0.394477	0.345389
12.8053	12.7062	0.395308	0.332041
12.8057	12.7057	0.395022	0.321069
12.8062	12.7052	0.394001	0.307161
12.8067	12.7047	0.394564	0.298057
12.8072	12.7042	0.393913	0.293054
12.8076	12.7038	0.394756	0.286496
12.8081	12.7033	0.394309	0.280618
12.8086	12.7028	0.39363	0.275915
12.8091	12.7024	0.395188	0.276391
12.8095	12.7019	0.394082	0.278584
12.81	12.7014	0.39263	0.279742
12.8105	12.701	0.393404	0.282565
12.8109	12.7005	0.393286	0.285283
12.8114	12.7	0.392516	0.290292
12.8119	12.6995	0.393246	0.296225
12.8124	12.6991	0.39281	0.29937
12.8128	12.6986	0.391758	0.303056
12.8133	12.6982	0.391075	0.306923
12.8138	12.6977	0.393395	0.310885
12.8142	12.6972	0.39086	0.314517
12.8147	12.6967	0.390785	0.315869
12.8152	12.6963	0.392564	0.317382
12.8157	12.6958	0.391985	0.317351
12.8161	12.6953	0.393604	0.318479
12.8166	12.6948	0.393806	0.317249
12.8171	12.6944	0.392	0.315003
12.8176	12.6939	0.390614	0.309997
12.818	12.6934	0.39158	0.304503
12.8185	12.6929	0.391977	0.300222
12.819	12.6925	0.391878	0.296076
12.8194	12.692	0.39025	0.288807
12.8199	12.6916	0.390123	0.282634
12.8204	12.6911	0.390876	0.278559
12.8209	12.6906	0.390442	0.273971
12.8213	12.6901	0.391984	0.272389
12.8218	12.6897	0.389357	0.270609
12.8223	12.6892	0.390084	0.268191
12.8227	12.6887	0.390346	0.267764
12.8232	12.6883	0.390352	0.270195
12.8237	12.6878	0.390127	0.274967
12.8242	12.6873	0.386912	0.276774
12.8246	12.6869	0.389034	0.279021
12.8251	12.6864	0.38904	0.282022
12.8256	12.6859	0.387875	0.28648
12.8261	12.6854	0.388138	0.292614
12.8265	12.6849	0.385249	0.29627
12.827	12.6845	0.386598	0.298958
12.8275	12.684	0.387202	0.301164
12.8279	12.6835	0.389654	0.308034
12.8284	12.683	0.390577	0.312886
12.8289	12.6826	0.386916	0.31133
12.8294	12.6821	0.38794	0.313021
12.8298	12.6816	0.388811	0.31562
12.8303	12.6812	0.389439	0.318742
12.8308	12.6807	0.390086	0.324606
12.8312	12.6802	0.388228	0.326416
12.8317	12.6797	0.387774	0.329195
12.8322	12.6793	0.388919	0.330277
12.8327	12.6788	0.391122	0.332237
12.8331	12.6783	0.388677	0.335061
12.8336	12.6779	0.388003	0.335346
12.8341	12.6774	0.387449	0.334591
12.8346	12.6769	0.388293	0.334776
12.835	12.6764	0.389145	0.335884
12.8355	12.676	0.388356	0.33591
12.836	12.6755	0.387867	0.335402
12.8364	12.675	0.387607	0.331989
12.8369	12.6745	0.389102	0.330853
12.8374	12.674	0.389162	0.333451
12.8379	12.6736	0.389488	0.332176
12.8383	12.6731	0.388474	0.331604
12.8388	12.6726	0.387445	0.327533
12.8393	12.6722	0.391066	0.327296
12.8397	12.6717	0.38834	0.325713
12.8402	12.6712	0.390211	0.325309
12.8407	12.6707	0.389723	0.32327
12.8412	12.6703	0.38856	0.318933
12.8416	12.6698	0.390313	0.317518
12.8421	12.6693	0.3916	0.31754
12.8426	12.6689	0.391285	0.315786
12.8431	12.6684	0.388652	0.311823
12.8435	12.668	0.390915	0.309118
12.844	12.6675	0.391263	0.306049
12.8445	12.667	0.39015	0.302893
12.8449	12.6665	0.391592	0.304165
12.8454	12.6661	0.39021	0.301015
12.8459	12.6656	0.389807	0.297002
12.8464	12.6651	0.391783	0.294052
12.8468	12.6646	0.39161	0.29318
12.8473	12.6641	0.389704	0.292
12.8478	12.6637	0.390074	0.289703
12.8482	12.6632	0.388643	0.285236
12.8487	12.6628	0.391251	0.283219
12.8492	12.6623	0.390803	0.28296
12.8497	12.6618	0.39054	0.282838
12.8501	12.6614	0.391105	0.279425
12.8506	12.6609	0.390172	0.275962
12.8511	12.6604	0.390585	0.274558
12.8516	12.6599	0.390517	0.275313
12.852	12.6595	0.390833	0.274144
12.8525	12.659	0.390587	0.271992
12.853	12.6585	0.389006	0.268093
12.8534	12.6581	0.390814	0.267465
12.8539	12.6576	0.389848	0.269029
12.8544	12.6571	0.390931	0.270194
12.8549	12.6566	0.389587	0.269531
12.8553	12.6562	0.389319	0.26934
12.8558	12.6557	0.391111	0.26959
12.8563	12.6552	0.392665	0.271021
12.8567	12.6547	0.391327	0.274688
12.8572	12.6542	0.39053	0.27438
12.8577	12.6538	0.391262	0.274919
12.8582	12.6533	0.39347	0.278363
12.8586	12.6528	0.392286	0.281154
12.8591	12.6524	0.391534	0.283134
12.8596	12.6519	0.391843	0.285147
12.8601	12.6514	0.391032	0.285733
12.8605	12.6509	0.392484	0.289832
12.861	12.6505	0.392262	0.291417
12.8615	12.65	0.393004	0.296276
12.8619	12.6495	0.390823	0.296181
12.8624	12.6491	0.390613	0.299138
12.8629	12.6486	0.393783	0.300472
12.8634	12.6481	0.391982	0.303425
12.8638	12.6476	0.391015	0.306119
12.8643	12.6472	0.390669	0.308448
12.8648	12.6467	0.388094	0.304957
12.8652	12.6462	0.389638	0.308372
12.8657	12.6457	0.388729	0.310342
12.8662	12.6452	0.387452	0.311264
12.8667	12.6448	0.388712	0.312643
12.8671	12.6443	0.386647	0.312577
12.8676	12.6438	0.390081	0.314322
12.8681	12.6433	0.389556	0.315707
12.8686	12.6429	0.390917	0.317886
12.869	12.6424	0.391409	0.319128
12.8695	12.642	0.390308	0.31705
12.87	12.6415	0.391982	0.319713
12.8704	12.641	0.393669	0.320838
12.8709	12.6405	0.391925	0.3213
12.8714	12.6401	0.391164	0.319959
12.8719	12.6396	0.389274	0.317752
12.8723	12.6391	0.393754	0.316796
12.8728	12.6387	0.390259	0.318171
12.8733	12.6382	0.389442	0.319264
12.8737	12.6378	0.390127	0.316784
12.8742	12.6373	0.389807	0.315285
12.8747	12.6368	0.39321	0.31369
12.8752	12.6363	0.392728	0.315171
12.8756	12.6358	0.391941	0.314385
12.8761	12.6354	0.391433	0.314588
12.8766	12.6349	0.390337	0.311426
12.8771	12.6344	0.391867	0.311945
12.8775	12.6339	0.391072	0.311759
12.878	12.6335	0.390914	0.313286
12.8785	12.633	0.390641	0.313035
12.8789	12.6325	0.389806	0.310263
12.8794	12.6321	0.391695	0.310282
12.8799	12.6316	0.392384	0.31318
12.8804	12.6311	0.390603	0.312267
12.8808	12.6307	0.390507	0.311867
12.8813	12.6302	0.389462	0.310935
12.8818	12.6297	0.391042	0.311274
12.8822	12.6292	0.39171	0.313499
12.8827	12.6288	0.39042	0.314451
12.8832	12.6283	0.39082	0.312956
12.8837	12.6278	0.390885	0.310647
12.8841	12.6274	0.392036	0.311767
12.8846	12.6269	0.390018	0.312282
12.8851	12.6264	0.389252	0.313656
12.8856	12.6259	0.390476	0.310761
12.886	12.6254	0.390235	0.309759
12.8865	12.625	0.390998	0.308383
12.887	12.6245	0.38961	0.309468
12.8874	12.624	0.389765	0.3089
12.8879	12.6235	0.390498	0.307889
12.8884	12.6231	0.390121	0.306317
12.8889	12.6226	0.391642	0.305391
12.8893	12.6221	0.391318	0.306991
12.8898	12.6217	0.390061	0.307244
12.8903	12.6212	0.389368	0.303495
12.8907	12.6207	0.389856	0.302565
12.8912	12.6202	0.391191	0.30333
12.8917	12.6198	0.389883	0.3019
12.8922	12.6193	0.388086	0.303256
12.8926	12.6188	0.38905	0.302003
12.8931	12.6184	0.389139	0.300739
12.8936	12.6179	0.390684	0.301337
12.8941	12.6174	0.389398	0.304322
12.8945	12.6169	0.386828	0.303584
12.895	12.6165	0.388002	0.301598
12.8955	12.616	0.389817	0.301632
12.8959	12.6155	0.39037	0.301991
12.8964	12.615	0.388837	0.302575
12.8969	12.6145	0.387861	0.301902
12.8974	12.6141	0.386466	0.30004
12.8978	12.6136	0.387831	0.298903
12.8983	12.6131	0.389626	0.298938
12.8988	12.6127	0.389079	0.299909
