# 1304     AichiSR QXAFS
# Start     : 8.9544
# End       : 9.0544
# Dir       : Forward
# Points    : 300
# ScanTime  : 1.01549
# Date      : 13.04.23 22:19
# Ring Cur. : 25.5[mA]
12.7557	12.7557	0.3994	1.21862
12.7562	12.7552	0.401559	1.21817
12.7566	12.7548	0.400212	1.21924
12.7571	12.7543	0.399825	1.22032
12.7576	12.7538	0.400159	1.21741
12.7581	12.7533	0.398789	1.2147
12.7585	12.7529	0.402636	1.21794
12.759	12.7524	0.401338	1.21797
12.7595	12.752	0.399885	1.21893
12.7599	12.7515	0.401411	1.22064
12.7604	12.751	0.4006	1.21633
12.7609	12.7505	0.401149	1.21357
12.7614	12.7501	0.40056	1.21814
12.7618	12.7496	0.399175	1.22035
12.7623	12.7491	0.400568	1.2164
12.7628	12.7487	0.401825	1.21753
12.7632	12.7482	0.401163	1.21609
12.7637	12.7477	0.401016	1.22047
12.7642	12.7473	0.398373	1.21581
12.7647	12.7468	0.400498	1.21753
12.7651	12.7463	0.400414	1.21526
12.7656	12.7458	0.39951	1.21596
12.7661	12.7454	0.401471	1.21464
12.7666	12.7449	0.400512	1.21795
12.767	12.7444	0.400141	1.21309
12.7675	12.7439	0.399819	1.21371
12.768	12.7435	0.40135	1.21434
12.7684	12.743	0.401992	1.21667
12.7689	12.7425	0.399091	1.21264
12.7694	12.7421	0.40184	1.21209
12.7699	12.7416	0.400468	1.21074
12.7703	12.7411	0.400766	1.21239
12.7708	12.7406	0.400861	1.21451
12.7713	12.7402	0.399938	1.21271
12.7717	12.7397	0.397153	1.21114
12.7722	12.7392	0.399454	1.21098
12.7727	12.7388	0.401169	1.20957
12.7732	12.7383	0.400783	1.20886
12.7736	12.7378	0.400283	1.21247
12.7741	12.7374	0.400789	1.20788
12.7746	12.7369	0.400017	1.20602
12.7751	12.7364	0.400465	1.20313
12.7755	12.7359	0.401253	1.20743
12.776	12.7354	0.399964	1.2045
12.7765	12.735	0.399618	1.20053
12.7769	12.7345	0.399585	1.20111
12.7774	12.734	0.400493	1.20027
12.7779	12.7335	0.401108	1.19817
12.7784	12.733	0.398866	1.19558
12.7788	12.7326	0.401121	1.1945
12.7793	12.7321	0.401499	1.19445
12.7798	12.7317	0.400761	1.1896
12.7802	12.7312	0.399972	1.18755
12.7807	12.7307	0.39925	1.18556
12.7812	12.7302	0.400465	1.17766
12.7817	12.7297	0.398678	1.1723
12.7821	12.7293	0.398996	1.16944
12.7826	12.7288	0.400605	1.16755
12.7831	12.7284	0.398826	1.15812
12.7836	12.7279	0.398151	1.15011
12.784	12.7274	0.39691	1.13944
12.7845	12.7269	0.398474	1.12595
12.785	12.7265	0.397248	1.11106
12.7854	12.726	0.396739	1.08834
12.7859	12.7255	0.394211	1.05556
12.7864	12.725	0.392979	1.01315
12.7869	12.7245	0.394681	0.967826
12.7873	12.7241	0.393836	0.914737
12.7878	12.7236	0.394294	0.853983
12.7883	12.7231	0.395822	0.790938
12.7887	12.7227	0.398215	0.737096
12.7892	12.7222	0.397051	0.689168
12.7897	12.7218	0.398609	0.658442
12.7902	12.7213	0.398064	0.637201
12.7906	12.7208	0.397755	0.619587
12.7911	12.7203	0.398996	0.614427
12.7916	12.7199	0.398773	0.617668
12.7921	12.7194	0.39875	0.620371
12.7925	12.7189	0.397821	0.624755
12.793	12.7185	0.397393	0.628151
12.7935	12.718	0.399128	0.629995
12.7939	12.7175	0.398252	0.630402
12.7944	12.7171	0.398447	0.63033
12.7949	12.7166	0.395835	0.622764
12.7954	12.7161	0.396564	0.610421
12.7958	12.7156	0.398128	0.600644
12.7963	12.7151	0.398679	0.588498
12.7968	12.7147	0.39829	0.578415
12.7972	12.7142	0.39605	0.56752
12.7977	12.7137	0.396655	0.557404
12.7982	12.7132	0.397968	0.544554
12.7987	12.7128	0.397539	0.537173
12.7991	12.7123	0.397705	0.526471
12.7996	12.7118	0.396632	0.515758
12.8001	12.7114	0.395832	0.499455
12.8006	12.7109	0.398	0.485421
12.801	12.7104	0.396811	0.471009
12.8015	12.7099	0.397746	0.458184
12.802	12.7095	0.396303	0.440607
12.8024	12.709	0.396807	0.422793
12.8029	12.7086	0.397687	0.406738
12.8034	12.7081	0.395726	0.390899
12.8039	12.7076	0.396735	0.375317
12.8043	12.7071	0.39648	0.360781
12.8048	12.7066	0.396888	0.343763
12.8053	12.7062	0.398109	0.3304
12.8057	12.7057	0.397362	0.319073
12.8062	12.7052	0.397493	0.309585
12.8067	12.7047	0.395802	0.299669
12.8072	12.7042	0.395244	0.29117
12.8076	12.7038	0.397703	0.28509
12.8081	12.7033	0.395279	0.281317
12.8086	12.7028	0.395232	0.278808
12.8091	12.7024	0.395964	0.278757
12.8095	12.7019	0.395705	0.278752
12.81	12.7014	0.395321	0.280844
12.8105	12.7009	0.396533	0.284
12.8109	12.7005	0.395637	0.288748
12.8114	12.7	0.393997	0.29211
12.8119	12.6995	0.394002	0.294888
12.8124	12.6991	0.395812	0.300193
12.8128	12.6986	0.393602	0.30687
12.8133	12.6982	0.395384	0.309761
12.8138	12.6977	0.395254	0.31506
12.8142	12.6972	0.39446	0.315967
12.8147	12.6967	0.397265	0.317713
12.8152	12.6963	0.395302	0.318955
12.8157	12.6958	0.396082	0.320657
12.8161	12.6953	0.393695	0.31961
12.8166	12.6948	0.393735	0.31746
12.8171	12.6943	0.396389	0.315986
12.8176	12.6939	0.394954	0.31186
12.818	12.6934	0.394873	0.308849
12.8185	12.6929	0.392627	0.303044
12.819	12.6925	0.3938	0.295799
12.8194	12.692	0.394338	0.289452
12.8199	12.6916	0.394626	0.285002
12.8204	12.6911	0.393761	0.281038
12.8209	12.6906	0.391492	0.276879
12.8213	12.6901	0.393073	0.269746
12.8218	12.6897	0.395998	0.27027
12.8223	12.6892	0.39375	0.270948
12.8227	12.6887	0.39319	0.27182
12.8232	12.6883	0.393405	0.273696
12.8237	12.6878	0.392431	0.274307
12.8242	12.6873	0.393	0.277918
12.8246	12.6868	0.394021	0.282101
12.8251	12.6864	0.390336	0.287625
12.8256	12.6859	0.390597	0.290286
12.8261	12.6854	0.390058	0.292781
12.8265	12.6849	0.393224	0.297626
12.827	12.6844	0.391008	0.301369
12.8275	12.684	0.389329	0.305223
12.8279	12.6835	0.388585	0.308094
12.8284	12.683	0.390279	0.310821
12.8289	12.6826	0.391899	0.313793
12.8294	12.6821	0.392022	0.317938
12.8298	12.6816	0.391099	0.321343
12.8303	12.6812	0.391025	0.322774
12.8308	12.6807	0.390564	0.324621
12.8312	12.6802	0.394229	0.328106
12.8317	12.6797	0.392749	0.332237
12.8322	12.6793	0.39144	0.334395
12.8327	12.6788	0.39343	0.3364
12.8331	12.6783	0.391774	0.336861
12.8336	12.6779	0.393646	0.337023
12.8341	12.6774	0.394153	0.339768
12.8346	12.6769	0.393012	0.340301
12.835	12.6764	0.391702	0.338747
12.8355	12.6759	0.391461	0.337468
12.836	12.6755	0.39441	0.336686
12.8364	12.675	0.392404	0.335164
12.8369	12.6745	0.390669	0.335241
12.8374	12.674	0.393471	0.334649
12.8379	12.6735	0.392018	0.332025
12.8383	12.6731	0.391996	0.332495
12.8388	12.6726	0.391798	0.331871
12.8393	12.6722	0.390852	0.330039
12.8397	12.6717	0.391847	0.327103
12.8402	12.6712	0.390236	0.323265
12.8407	12.6707	0.39264	0.322332
12.8412	12.6703	0.392438	0.32172
12.8416	12.6698	0.390364	0.320253
12.8421	12.6693	0.38988	0.317511
12.8426	12.6689	0.391081	0.313797
12.8431	12.6684	0.39195	0.310941
12.8435	12.6679	0.391669	0.310308
12.844	12.6675	0.390994	0.308493
12.8445	12.667	0.390189	0.30385
12.8449	12.6665	0.390079	0.301728
12.8454	12.666	0.391721	0.298929
12.8459	12.6656	0.391119	0.296199
12.8464	12.6651	0.389861	0.294765
12.8468	12.6646	0.389335	0.292717
12.8473	12.6641	0.389527	0.289118
12.8478	12.6637	0.390677	0.286819
12.8482	12.6632	0.389545	0.286946
12.8487	12.6627	0.39001	0.285219
12.8492	12.6623	0.389507	0.281598
12.8497	12.6618	0.39004	0.277904
12.8501	12.6613	0.389708	0.277949
12.8506	12.6609	0.389254	0.275605
12.8511	12.6604	0.387071	0.275008
12.8516	12.6599	0.388371	0.271203
12.852	12.6595	0.388282	0.269861
12.8525	12.659	0.388957	0.269093
12.853	12.6585	0.389212	0.268808
12.8534	12.6581	0.387715	0.269273
12.8539	12.6576	0.385872	0.265642
12.8544	12.6571	0.387403	0.26522
12.8549	12.6566	0.389698	0.266153
12.8553	12.6561	0.387747	0.267248
12.8558	12.6557	0.385089	0.269148
12.8563	12.6552	0.38593	0.268427
12.8567	12.6547	0.386959	0.269412
12.8572	12.6542	0.389362	0.270494
12.8577	12.6537	0.388318	0.274131
12.8582	12.6533	0.386637	0.276517
12.8586	12.6528	0.385688	0.277747
12.8591	12.6524	0.387914	0.278504
12.8596	12.6519	0.387648	0.280872
12.8601	12.6514	0.386943	0.282997
12.8605	12.6509	0.384703	0.285899
12.861	12.6505	0.386607	0.288073
12.8615	12.65	0.38672	0.290149
12.8619	12.6495	0.386032	0.292501
12.8624	12.649	0.386919	0.295758
12.8629	12.6486	0.384977	0.298954
12.8634	12.6481	0.383625	0.298909
12.8638	12.6476	0.385107	0.300228
12.8643	12.6472	0.385036	0.30279
12.8648	12.6467	0.384523	0.303504
12.8652	12.6462	0.380706	0.304518
12.8657	12.6457	0.381241	0.305148
12.8662	12.6452	0.380456	0.305654
12.8667	12.6448	0.382045	0.306432
12.8671	12.6443	0.381388	0.309277
12.8676	12.6438	0.38258	0.310685
12.8681	12.6433	0.38201	0.309299
12.8686	12.6429	0.382762	0.310386
12.869	12.6424	0.389886	0.315132
12.8695	12.642	0.387077	0.315561
12.87	12.6415	0.384302	0.314513
12.8704	12.641	0.384606	0.313479
12.8709	12.6405	0.384389	0.312547
12.8714	12.6401	0.38371	0.313191
12.8719	12.6396	0.384907	0.314813
12.8723	12.6391	0.382721	0.313403
12.8728	12.6387	0.382298	0.310823
12.8733	12.6382	0.383179	0.309126
12.8737	12.6377	0.385379	0.31022
12.8742	12.6373	0.383548	0.310739
12.8747	12.6368	0.382876	0.308461
12.8752	12.6363	0.382115	0.30738
12.8756	12.6358	0.382028	0.305523
12.8761	12.6354	0.384559	0.306666
12.8766	12.6349	0.383293	0.308163
12.8771	12.6344	0.382735	0.30566
12.8775	12.6339	0.380947	0.303708
12.878	12.6335	0.383486	0.304526
12.8785	12.633	0.383421	0.304102
12.8789	12.6325	0.383809	0.305072
12.8794	12.6321	0.381085	0.305092
12.8799	12.6316	0.383629	0.304956
12.8804	12.6311	0.38309	0.3048
12.8808	12.6306	0.382774	0.306397
12.8813	12.6302	0.384584	0.306587
12.8818	12.6297	0.383055	0.306081
12.8822	12.6292	0.383019	0.306145
12.8827	12.6288	0.384579	0.305201
12.8832	12.6283	0.385639	0.306899
12.8837	12.6278	0.384047	0.308352
12.8841	12.6274	0.384012	0.306437
12.8846	12.6269	0.383663	0.306339
12.8851	12.6264	0.383584	0.305224
12.8856	12.6259	0.383104	0.305644
12.886	12.6254	0.384693	0.306764
12.8865	12.6249	0.3828	0.305174
12.887	12.6245	0.38276	0.302341
12.8874	12.624	0.385075	0.302682
12.8879	12.6235	0.385494	0.303239
12.8884	12.6231	0.385093	0.303163
12.8889	12.6226	0.383967	0.301554
12.8893	12.6221	0.384587	0.299677
12.8898	12.6217	0.384562	0.299483
12.8903	12.6212	0.385874	0.299783
12.8907	12.6207	0.384167	0.300105
12.8912	12.6202	0.384045	0.29911
12.8917	12.6198	0.383039	0.297825
12.8922	12.6193	0.383837	0.296252
12.8926	12.6188	0.385246	0.298418
12.8931	12.6184	0.38536	0.300077
12.8936	12.6179	0.383565	0.30026
12.8941	12.6174	0.382456	0.298097
12.8945	12.6169	0.383711	0.296854
12.895	12.6164	0.38428	0.297873
12.8955	12.616	0.385605	0.300763
12.8959	12.6155	0.383626	0.299772
12.8964	12.615	0.384298	0.297558
12.8969	12.6145	0.383224	0.297466
12.8974	12.6141	0.384724	0.297661
12.8978	12.6136	0.385497	0.296982
12.8983	12.6131	0.382942	0.297456
12.8988	12.6127	0.384155	0.294414
