# 1304     AichiSR QXAFS
# Start     : 8.9544
# End       : 9.0544
# Dir       : Backward
# Points    : 300
# ScanTime  : 1.01549
# Date      : 13.04.23 22:22
# Ring Cur. : 25.5[mA]
12.7557	12.6117	0.307044	0.234615
12.7562	12.6122	0.304577	0.235765
12.7566	12.6127	0.307748	0.236101
12.7571	12.6131	0.307125	0.235453
12.7576	12.6136	0.30744	0.235959
12.7581	12.6141	0.308697	0.240384
12.7585	12.6145	0.310223	0.242017
12.759	12.615	0.307081	0.239498
12.7595	12.6155	0.307243	0.237681
12.7599	12.616	0.311967	0.240554
12.7604	12.6164	0.308838	0.240528
12.7609	12.6169	0.307983	0.240922
12.7614	12.6174	0.30914	0.24048
12.7618	12.6179	0.309464	0.2399
12.7623	12.6183	0.309472	0.239769
12.7628	12.6188	0.310286	0.242688
12.7632	12.6193	0.311814	0.243365
12.7637	12.6197	0.30996	0.241479
12.7642	12.6202	0.310524	0.240115
12.7647	12.6207	0.313654	0.242951
12.7651	12.6212	0.309992	0.241741
12.7656	12.6217	0.308133	0.242459
12.7661	12.6221	0.31128	0.244013
12.7666	12.6226	0.309394	0.24114
12.767	12.623	0.309694	0.242559
12.7675	12.6235	0.310593	0.24504
12.768	12.624	0.310146	0.247053
12.7684	12.6245	0.310527	0.245119
12.7689	12.6249	0.309566	0.245388
12.7694	12.6254	0.311319	0.245905
12.7699	12.6259	0.310316	0.246984
12.7703	12.6264	0.310728	0.249095
12.7708	12.6269	0.31099	0.248248
12.7713	12.6273	0.310287	0.247245
12.7717	12.6278	0.310689	0.247497
12.7722	12.6283	0.311933	0.250423
12.7727	12.6288	0.310794	0.25172
12.7732	12.6292	0.310839	0.249455
12.7736	12.6297	0.310861	0.249758
12.7741	12.6301	0.313063	0.249725
12.7746	12.6306	0.312514	0.249705
12.7751	12.6311	0.310538	0.249977
12.7755	12.6316	0.311017	0.248817
12.776	12.6321	0.31261	0.24888
12.7765	12.6325	0.313689	0.248786
12.7769	12.633	0.310659	0.24808
12.7774	12.6334	0.313891	0.250882
12.7779	12.6339	0.314276	0.249893
12.7784	12.6344	0.313563	0.248291
12.7788	12.6349	0.313399	0.249112
12.7793	12.6353	0.312765	0.252159
12.7798	12.6358	0.313303	0.252193
12.7802	12.6363	0.313872	0.252125
12.7807	12.6368	0.31163	0.249927
12.7812	12.6372	0.311432	0.250182
12.7817	12.6377	0.31354	0.254543
12.7821	12.6382	0.312483	0.254862
12.7826	12.6387	0.312659	0.253458
12.7831	12.6391	0.313278	0.253498
12.7836	12.6396	0.316165	0.257677
12.784	12.64	0.315039	0.255942
12.7845	12.6405	0.311937	0.256028
12.785	12.641	0.314192	0.256508
12.7854	12.6415	0.314634	0.256815
12.7859	12.6419	0.312561	0.255538
12.7864	12.6424	0.315048	0.257621
12.7869	12.6428	0.312997	0.247598
12.7873	12.6433	0.313561	0.25934
12.7878	12.6438	0.313224	0.253162
12.7883	12.6442	0.314016	0.254421
12.7887	12.6447	0.312443	0.253413
12.7892	12.6452	0.309947	0.251997
12.7897	12.6457	0.312352	0.251814
12.7902	12.6462	0.311628	0.249302
12.7906	12.6467	0.311614	0.248559
12.7911	12.6471	0.31317	0.250227
12.7916	12.6476	0.313788	0.249548
12.7921	12.6481	0.313917	0.245923
12.7925	12.6486	0.314224	0.244111
12.793	12.649	0.317026	0.244334
12.7935	12.6495	0.315672	0.243032
12.7939	12.65	0.314652	0.241228
12.7944	12.6504	0.315563	0.239576
12.7949	12.6509	0.31705	0.237252
12.7954	12.6514	0.315482	0.234905
12.7958	12.6519	0.315402	0.234642
12.7963	12.6523	0.316096	0.233195
12.7968	12.6528	0.316558	0.228604
12.7972	12.6533	0.31585	0.22707
12.7977	12.6537	0.317334	0.22764
12.7982	12.6542	0.31755	0.226332
12.7987	12.6547	0.315428	0.224319
12.7991	12.6552	0.316295	0.221387
12.7996	12.6557	0.317889	0.220539
12.8001	12.6561	0.316541	0.218905
12.8006	12.6566	0.318282	0.219441
12.801	12.6571	0.318273	0.22
12.8015	12.6576	0.31662	0.21759
12.802	12.658	0.317694	0.216863
12.8024	12.6585	0.317098	0.220036
12.8029	12.659	0.319324	0.221866
12.8034	12.6594	0.316745	0.220711
12.8039	12.6599	0.31674	0.22047
12.8043	12.6604	0.319415	0.222794
12.8048	12.6608	0.31776	0.223749
12.8053	12.6613	0.317547	0.226935
12.8057	12.6618	0.317735	0.229199
12.8062	12.6623	0.31754	0.227496
12.8067	12.6627	0.318145	0.228503
12.8072	12.6632	0.319963	0.232227
12.8076	12.6636	0.318555	0.235487
12.8081	12.6641	0.318355	0.236309
12.8086	12.6646	0.319187	0.23711
12.8091	12.6651	0.318747	0.238476
12.8095	12.6655	0.317117	0.238747
12.81	12.666	0.319857	0.242889
12.8105	12.6665	0.31995	0.245662
12.8109	12.667	0.317903	0.244922
12.8114	12.6675	0.317842	0.246648
12.8119	12.6679	0.320851	0.250801
12.8124	12.6684	0.320454	0.253304
12.8128	12.6689	0.318227	0.254522
12.8133	12.6693	0.320685	0.257524
12.8138	12.6698	0.32168	0.257751
12.8142	12.6702	0.319223	0.260146
12.8147	12.6707	0.319817	0.262948
12.8152	12.6712	0.319415	0.266816
12.8157	12.6717	0.318163	0.264834
12.8161	12.6721	0.319463	0.2667
12.8166	12.6726	0.32048	0.270164
12.8171	12.6731	0.318071	0.27191
12.8176	12.6735	0.318853	0.27201
12.818	12.674	0.320271	0.272678
12.8185	12.6745	0.321196	0.273689
12.819	12.675	0.318753	0.273376
12.8194	12.6754	0.32056	0.276091
12.8199	12.6759	0.321739	0.277433
12.8204	12.6764	0.319614	0.275246
12.8209	12.6769	0.320496	0.275251
12.8213	12.6774	0.321618	0.277708
12.8218	12.6779	0.321376	0.278803
12.8223	12.6783	0.321719	0.27698
12.8227	12.6788	0.321502	0.275597
12.8232	12.6792	0.323299	0.274715
12.8237	12.6797	0.320569	0.273528
12.8242	12.6802	0.320687	0.273187
12.8246	12.6807	0.321476	0.271074
12.8251	12.6811	0.319426	0.266871
12.8256	12.6816	0.321891	0.26504
12.8261	12.6821	0.32119	0.26358
12.8265	12.6826	0.319789	0.26221
12.827	12.683	0.319918	0.25863
12.8275	12.6835	0.321133	0.256083
12.8279	12.684	0.323116	0.25293
12.8284	12.6844	0.319526	0.250677
12.8289	12.6849	0.319178	0.250565
12.8294	12.6854	0.320608	0.247164
12.8298	12.6859	0.31985	0.243074
12.8303	12.6864	0.320997	0.238943
12.8308	12.6868	0.321573	0.236869
12.8312	12.6873	0.321626	0.234062
12.8317	12.6878	0.320159	0.230956
12.8322	12.6883	0.321642	0.22567
12.8327	12.6887	0.323408	0.224407
12.8331	12.6892	0.322355	0.222755
12.8336	12.6896	0.321066	0.223321
12.8341	12.6901	0.322922	0.223375
12.8346	12.6906	0.322453	0.222379
12.835	12.6911	0.323192	0.223931
12.8355	12.6915	0.321852	0.227552
12.836	12.692	0.322229	0.232822
12.8364	12.6925	0.321298	0.237182
12.8369	12.6929	0.322024	0.239842
12.8374	12.6934	0.323739	0.244923
12.8379	12.6939	0.320576	0.247593
12.8383	12.6943	0.320039	0.253985
12.8388	12.6948	0.321957	0.258625
12.8393	12.6953	0.319777	0.258159
12.8397	12.6958	0.322827	0.259012
12.8402	12.6962	0.321476	0.261766
12.8407	12.6967	0.322429	0.262315
12.8412	12.6972	0.31963	0.25958
12.8416	12.6977	0.320655	0.256923
12.8421	12.6981	0.322927	0.256511
12.8426	12.6986	0.320199	0.25314
12.8431	12.6991	0.32056	0.251126
12.8435	12.6995	0.321256	0.246537
12.844	12.7	0.318327	0.240776
12.8445	12.7005	0.321502	0.2389
12.8449	12.7009	0.321065	0.235848
12.8454	12.7014	0.319973	0.233132
12.8459	12.7019	0.319188	0.229257
12.8464	12.7024	0.3213	0.226287
12.8468	12.7028	0.321623	0.224859
12.8473	12.7033	0.320729	0.226036
12.8478	12.7038	0.321696	0.228988
12.8482	12.7042	0.321412	0.2328
12.8487	12.7047	0.319818	0.232871
12.8492	12.7052	0.322904	0.239853
12.8497	12.7057	0.322511	0.24861
12.8501	12.7062	0.321753	0.256363
12.8506	12.7066	0.3177	0.263095
12.8511	12.7071	0.318888	0.273131
12.8516	12.7076	0.324708	0.288572
12.852	12.7081	0.321316	0.299453
12.8525	12.7085	0.320567	0.312202
12.853	12.709	0.32305	0.325908
12.8534	12.7095	0.322285	0.33859
12.8539	12.7099	0.325689	0.355763
12.8544	12.7104	0.326463	0.373174
12.8549	12.7109	0.324303	0.382923
12.8553	12.7114	0.321528	0.392261
12.8558	12.7118	0.322428	0.40143
12.8563	12.7123	0.324006	0.41505
12.8567	12.7128	0.321717	0.422917
12.8572	12.7132	0.321907	0.433764
12.8577	12.7137	0.322469	0.44351
12.8582	12.7142	0.319846	0.446886
12.8586	12.7147	0.323737	0.456363
12.8591	12.7151	0.323947	0.468706
12.8596	12.7156	0.321634	0.478563
12.8601	12.7161	0.32145	0.482554
12.8605	12.7166	0.323036	0.491711
12.861	12.717	0.32438	0.503344
12.8615	12.7175	0.322112	0.506892
12.8619	12.718	0.320031	0.513643
12.8624	12.7185	0.320367	0.512855
12.8629	12.7189	0.32014	0.508793
12.8634	12.7194	0.323174	0.50734
12.8638	12.7198	0.322903	0.50429
12.8643	12.7203	0.321795	0.500747
12.8648	12.7208	0.32081	0.497394
12.8652	12.7213	0.321957	0.500506
12.8657	12.7217	0.323728	0.506906
12.8662	12.7222	0.323019	0.524136
12.8667	12.7227	0.322031	0.549103
12.8671	12.7231	0.321069	0.579481
12.8676	12.7236	0.317653	0.615468
12.8681	12.7241	0.322098	0.668825
12.8686	12.7245	0.32088	0.725147
12.869	12.725	0.319446	0.770011
12.8695	12.7255	0.31819	0.804979
12.87	12.726	0.31932	0.84269
12.8704	12.7264	0.322617	0.870512
12.8709	12.7269	0.321344	0.891761
12.8714	12.7274	0.320391	0.909127
12.8719	12.7279	0.323126	0.923989
12.8723	12.7283	0.321846	0.925973
12.8728	12.7288	0.324315	0.935751
12.8733	12.7293	0.324211	0.947333
12.8737	12.7297	0.324776	0.954334
12.8742	12.7302	0.324492	0.954805
12.8747	12.7307	0.324109	0.959101
12.8752	12.7312	0.328238	0.963135
12.8756	12.7316	0.325459	0.964429
12.8761	12.7321	0.324755	0.970699
12.8766	12.7326	0.326099	0.973536
12.8771	12.733	0.324908	0.969545
12.8775	12.7335	0.325188	0.970426
12.878	12.734	0.327853	0.980684
12.8785	12.7345	0.326094	0.981043
12.8789	12.735	0.324535	0.977796
12.8794	12.7354	0.326889	0.982126
12.8799	12.7359	0.329895	0.987015
12.8804	12.7364	0.326449	0.983884
12.8808	12.7369	0.328041	0.990202
12.8813	12.7374	0.329489	0.993692
12.8818	12.7378	0.327681	0.989809
12.8822	12.7383	0.329093	0.98829
12.8827	12.7388	0.329387	0.993384
12.8832	12.7392	0.327805	0.995825
12.8837	12.7397	0.328628	0.991472
12.8841	12.7402	0.327875	0.992906
12.8846	12.7406	0.328235	0.993142
12.8851	12.7411	0.329173	0.998086
12.8856	12.7416	0.328809	1.00016
12.886	12.7421	0.328961	1.00012
12.8865	12.7425	0.328216	0.997809
12.887	12.743	0.332086	1.00449
12.8874	12.7435	0.331582	1.00638
12.8879	12.7439	0.329981	1.00429
12.8884	12.7444	0.330141	1.0048
12.8889	12.7449	0.331056	1.0085
12.8893	12.7454	0.331666	1.00421
12.8898	12.7458	0.329827	1.00888
12.8903	12.7463	0.330864	1.01039
12.8907	12.7468	0.330852	1.0092
12.8912	12.7473	0.330647	1.0066
12.8917	12.7477	0.333427	1.00767
12.8922	12.7482	0.33216	1.01047
12.8926	12.7487	0.331981	1.0126
12.8931	12.7491	0.332655	1.01177
12.8936	12.7496	0.333213	1.01277
12.8941	12.7501	0.333404	1.01571
12.8945	12.7505	0.332733	1.0145
12.895	12.751	0.332011	1.01597
12.8955	12.7515	0.333636	1.01841
12.8959	12.752	0.332871	1.01446
12.8964	12.7524	0.334364	1.0152
12.8969	12.7529	0.333136	1.01815
12.8974	12.7533	0.331423	1.01576
12.8978	12.7538	0.331019	1.00772
12.8983	12.7543	0.331708	1.01735
12.8988	12.7548	0.334774	1.01793
