# 1304     AichiSR QXAFS
# Start     : 8.9544
# End       : 9.0544
# Dir       : Forward
# Points    : 300
# ScanTime  : 1.01549
# Date      : 13.04.23 22:27
# Ring Cur. : 25.4[mA]
12.7557	12.7557	0.400868	1.22093
12.7562	12.7553	0.40065	1.221
12.7566	12.7548	0.400851	1.2214
12.7571	12.7543	0.400142	1.22001
12.7576	12.7538	0.399072	1.21727
12.7581	12.7534	0.400398	1.21526
12.7585	12.7529	0.400029	1.22131
12.759	12.7524	0.40075	1.21958
12.7595	12.752	0.399307	1.21784
12.7599	12.7515	0.398339	1.21464
12.7604	12.751	0.401445	1.21728
12.7609	12.7506	0.399384	1.21567
12.7614	12.7501	0.398571	1.21862
12.7618	12.7496	0.397875	1.21607
12.7623	12.7492	0.397753	1.20944
12.7628	12.7487	0.402002	1.21329
12.7632	12.7482	0.398877	1.21442
12.7637	12.7478	0.398845	1.21693
12.7642	12.7473	0.399096	1.21547
12.7647	12.7468	0.399226	1.2097
12.7651	12.7464	0.399052	1.21194
12.7656	12.7459	0.399057	1.21282
12.7661	12.7454	0.398847	1.21706
12.7666	12.7449	0.396974	1.20996
12.767	12.7444	0.396532	1.20693
12.7675	12.744	0.399576	1.20992
12.768	12.7435	0.399779	1.20841
12.7684	12.743	0.397886	1.21152
12.7689	12.7426	0.397825	1.2075
12.7694	12.7421	0.397306	1.20337
12.7699	12.7416	0.399156	1.20777
12.7703	12.7412	0.399156	1.20722
12.7708	12.7407	0.396734	1.20789
12.7713	12.7402	0.397466	1.20618
12.7717	12.7397	0.398089	1.20063
12.7722	12.7393	0.398521	1.20141
12.7727	12.7388	0.397895	1.20228
12.7732	12.7383	0.395457	1.20262
12.7736	12.7379	0.396397	1.19947
12.7741	12.7374	0.397188	1.19546
12.7746	12.7369	0.398691	1.19566
12.7751	12.7364	0.396414	1.19649
12.7755	12.736	0.397251	1.19875
12.776	12.7355	0.395915	1.19715
12.7765	12.735	0.395347	1.18973
12.7769	12.7345	0.397145	1.18901
12.7774	12.734	0.396465	1.19025
12.7779	12.7336	0.39542	1.18836
12.7784	12.7331	0.395136	1.18346
12.7788	12.7326	0.394446	1.18263
12.7793	12.7322	0.395825	1.17968
12.7798	12.7317	0.395224	1.17595
12.7802	12.7312	0.393433	1.1754
12.7807	12.7307	0.3943	1.1706
12.7812	12.7302	0.393303	1.16364
12.7817	12.7298	0.396574	1.15834
12.7821	12.7293	0.39375	1.15816
12.7826	12.7289	0.394545	1.15414
12.7831	12.7284	0.392252	1.14431
12.7836	12.7279	0.39404	1.13571
12.784	12.7274	0.394411	1.12926
12.7845	12.727	0.394255	1.1151
12.785	12.7265	0.3921	1.0992
12.7854	12.726	0.391072	1.07556
12.7859	12.7255	0.387842	1.04291
12.7864	12.7251	0.388563	1.00542
12.7869	12.7246	0.38703	0.961376
12.7873	12.7241	0.386119	0.909199
12.7878	12.7236	0.388087	0.846218
12.7883	12.7232	0.389892	0.782719
12.7887	12.7227	0.392395	0.729657
12.7892	12.7222	0.393179	0.686692
12.7897	12.7218	0.392011	0.649951
12.7902	12.7213	0.392723	0.627028
12.7906	12.7208	0.392119	0.611914
12.7911	12.7204	0.39121	0.606306
12.7916	12.7199	0.39271	0.606802
12.7921	12.7194	0.390808	0.612028
12.7925	12.719	0.390423	0.613591
12.793	12.7185	0.391717	0.615256
12.7935	12.718	0.393528	0.62064
12.7939	12.7176	0.392367	0.622567
12.7944	12.7171	0.390077	0.619252
12.7949	12.7166	0.390598	0.613047
12.7954	12.7161	0.390104	0.601152
12.7958	12.7157	0.391343	0.590764
12.7963	12.7152	0.392065	0.582409
12.7968	12.7147	0.390148	0.5728
12.7972	12.7142	0.389274	0.558068
12.7977	12.7137	0.388822	0.547237
12.7982	12.7133	0.391392	0.539641
12.7987	12.7128	0.390688	0.533295
12.7991	12.7123	0.390838	0.52028
12.7996	12.7119	0.389935	0.509261
12.8001	12.7114	0.389801	0.491742
12.8006	12.7109	0.394225	0.484059
12.801	12.7104	0.393421	0.471565
12.8015	12.71	0.390377	0.453665
12.802	12.7095	0.389213	0.433738
12.8024	12.709	0.388766	0.416133
12.8029	12.7086	0.391087	0.401626
12.8034	12.7081	0.390011	0.386628
12.8039	12.7076	0.389182	0.371129
12.8043	12.7072	0.389938	0.354422
12.8048	12.7067	0.389319	0.339123
12.8053	12.7062	0.391689	0.326124
12.8057	12.7057	0.390811	0.317224
12.8062	12.7052	0.388344	0.305595
12.8067	12.7048	0.388598	0.29478
12.8072	12.7043	0.389071	0.285493
12.8076	12.7038	0.389028	0.280544
12.8081	12.7033	0.388903	0.278255
12.8086	12.7029	0.388057	0.275857
12.8091	12.7024	0.389779	0.274477
12.8095	12.7019	0.389005	0.273253
12.81	12.7015	0.391233	0.275629
12.8105	12.701	0.38975	0.281061
12.8109	12.7005	0.389543	0.285319
12.8114	12.7	0.390847	0.287995
12.8119	12.6996	0.389909	0.290414
12.8124	12.6991	0.390856	0.297008
12.8128	12.6986	0.390398	0.301916
12.8133	12.6982	0.389151	0.305464
12.8138	12.6977	0.390711	0.308145
12.8142	12.6972	0.390392	0.311309
12.8147	12.6968	0.390487	0.312493
12.8152	12.6963	0.391862	0.31751
12.8157	12.6958	0.391371	0.320091
12.8161	12.6953	0.391249	0.316643
12.8166	12.6948	0.390645	0.314453
12.8171	12.6944	0.392341	0.312244
12.8176	12.6939	0.389092	0.310555
12.818	12.6934	0.389006	0.304965
12.8185	12.693	0.39082	0.301309
12.819	12.6925	0.392043	0.293979
12.8194	12.692	0.392442	0.287256
12.8199	12.6916	0.392094	0.284583
12.8204	12.6911	0.390936	0.280571
12.8209	12.6906	0.390533	0.27357
12.8213	12.6901	0.392249	0.271029
12.8218	12.6897	0.391132	0.269326
12.8223	12.6892	0.391239	0.269603
12.8227	12.6888	0.388868	0.268739
12.8232	12.6883	0.390431	0.270021
12.8237	12.6878	0.391793	0.273812
12.8242	12.6874	0.390661	0.277089
12.8246	12.6869	0.392067	0.282439
12.8251	12.6864	0.388749	0.285634
12.8256	12.6859	0.391939	0.289408
12.8261	12.6854	0.391164	0.292523
12.8265	12.685	0.390883	0.297084
12.827	12.6845	0.389328	0.301022
12.8275	12.684	0.388018	0.30427
12.8279	12.6835	0.390762	0.307314
12.8284	12.6831	0.390642	0.308287
12.8289	12.6826	0.390113	0.313331
12.8294	12.6821	0.392203	0.318547
12.8298	12.6817	0.389816	0.319631
12.8303	12.6812	0.389909	0.322808
12.8308	12.6807	0.392608	0.324721
12.8312	12.6802	0.392915	0.327186
12.8317	12.6798	0.392184	0.333263
12.8322	12.6793	0.390737	0.334734
12.8327	12.6788	0.391865	0.335007
12.8331	12.6784	0.393759	0.337159
12.8336	12.6779	0.39388	0.337174
12.8341	12.6774	0.391963	0.340569
12.8346	12.6769	0.392485	0.339446
12.835	12.6765	0.392529	0.337928
12.8355	12.676	0.393124	0.338211
12.836	12.6755	0.393833	0.337022
12.8364	12.675	0.392531	0.338466
12.8369	12.6745	0.391792	0.337207
12.8374	12.6741	0.392678	0.335675
12.8379	12.6736	0.394424	0.333726
12.8383	12.6731	0.391909	0.331722
12.8388	12.6726	0.393191	0.33456
12.8393	12.6722	0.392338	0.332218
12.8397	12.6717	0.392794	0.32871
12.8402	12.6712	0.393072	0.325651
12.8407	12.6708	0.393872	0.325268
12.8412	12.6703	0.392841	0.325314
12.8416	12.6698	0.392341	0.320998
12.8421	12.6694	0.392931	0.317609
12.8426	12.6689	0.393339	0.314321
12.8431	12.6684	0.394207	0.312518
12.8435	12.668	0.393693	0.312811
12.844	12.6675	0.393701	0.309712
12.8445	12.667	0.392878	0.304626
12.8449	12.6666	0.394386	0.303052
12.8454	12.6661	0.393773	0.3015
12.8459	12.6656	0.393396	0.298954
12.8464	12.6651	0.392378	0.297664
12.8468	12.6646	0.393261	0.293928
12.8473	12.6642	0.393579	0.291485
12.8478	12.6637	0.393922	0.289986
12.8482	12.6632	0.391483	0.288894
12.8487	12.6628	0.392153	0.287454
12.8492	12.6623	0.393126	0.284238
12.8497	12.6618	0.392836	0.280854
12.8501	12.6614	0.394229	0.281313
12.8506	12.6609	0.394646	0.280367
12.8511	12.6604	0.391566	0.276162
12.8516	12.6599	0.39087	0.275353
12.852	12.6595	0.393452	0.272812
12.8525	12.659	0.392289	0.272261
12.853	12.6586	0.39201	0.272399
12.8534	12.6581	0.391587	0.271291
12.8539	12.6576	0.390122	0.270184
12.8544	12.6571	0.392097	0.268221
12.8549	12.6567	0.392554	0.269412
12.8553	12.6562	0.390988	0.271297
12.8558	12.6557	0.391261	0.271112
12.8563	12.6552	0.392297	0.271191
12.8567	12.6547	0.393498	0.271768
12.8572	12.6543	0.391461	0.274092
12.8577	12.6538	0.392172	0.277482
12.8582	12.6533	0.391693	0.279495
12.8586	12.6528	0.391215	0.280593
12.8591	12.6524	0.393465	0.283131
12.8596	12.6519	0.392476	0.285502
12.8601	12.6514	0.392194	0.289846
12.8605	12.651	0.392205	0.29136
12.861	12.6505	0.391912	0.290702
12.8615	12.65	0.392728	0.29416
12.8619	12.6495	0.391553	0.297093
12.8624	12.6491	0.390963	0.300786
12.8629	12.6486	0.39165	0.301125
12.8634	12.6481	0.391219	0.302027
12.8638	12.6477	0.390852	0.304928
12.8643	12.6472	0.390522	0.306661
12.8648	12.6467	0.390931	0.309771
12.8652	12.6462	0.389709	0.309145
12.8657	12.6457	0.387782	0.308582
12.8662	12.6453	0.388564	0.310132
12.8667	12.6448	0.386584	0.311981
12.8671	12.6443	0.389389	0.314947
12.8676	12.6438	0.386796	0.315087
12.8681	12.6434	0.38838	0.314272
12.8686	12.6429	0.389407	0.315039
12.869	12.6424	0.390506	0.318081
12.8695	12.642	0.389716	0.318143
12.87	12.6415	0.389769	0.319136
12.8704	12.641	0.39093	0.318361
12.8709	12.6406	0.391795	0.318495
12.8714	12.6401	0.388587	0.317049
12.8719	12.6396	0.390992	0.319239
12.8723	12.6392	0.390453	0.318246
12.8728	12.6387	0.388864	0.315882
12.8733	12.6382	0.391408	0.31458
12.8737	12.6378	0.390511	0.315922
12.8742	12.6373	0.388694	0.315366
12.8747	12.6368	0.388397	0.314441
12.8752	12.6363	0.389334	0.313167
12.8756	12.6359	0.389585	0.312025
12.8761	12.6354	0.387014	0.31138
12.8766	12.6349	0.388113	0.31143
12.8771	12.6344	0.388566	0.312526
12.8775	12.634	0.387694	0.308899
12.878	12.6335	0.38895	0.309442
12.8785	12.633	0.3916	0.310163
12.8789	12.6326	0.388645	0.309618
12.8794	12.6321	0.388735	0.310677
12.8799	12.6316	0.389382	0.308518
12.8804	12.6312	0.389323	0.308826
12.8808	12.6307	0.388082	0.310597
12.8813	12.6302	0.389562	0.310659
12.8818	12.6297	0.388279	0.310756
12.8822	12.6293	0.386484	0.308327
12.8827	12.6288	0.38882	0.309847
12.8832	12.6283	0.388639	0.310459
12.8837	12.6279	0.386295	0.310612
12.8841	12.6274	0.38694	0.310499
12.8846	12.6269	0.388279	0.309834
12.8851	12.6264	0.388336	0.308952
12.8856	12.6259	0.387869	0.308262
12.886	12.6255	0.388997	0.309265
12.8865	12.625	0.387294	0.308352
12.887	12.6245	0.387271	0.306289
12.8874	12.624	0.38815	0.304727
12.8879	12.6236	0.38752	0.305353
12.8884	12.6231	0.385601	0.304416
12.8889	12.6226	0.386971	0.303272
12.8893	12.6222	0.386923	0.300684
12.8898	12.6217	0.38684	0.302481
12.8903	12.6212	0.386885	0.301599
12.8907	12.6207	0.388431	0.302948
12.8912	12.6202	0.385079	0.300436
12.8917	12.6198	0.386359	0.298788
12.8922	12.6193	0.387199	0.301059
12.8926	12.6188	0.387765	0.301528
12.8931	12.6184	0.38453	0.300161
12.8936	12.6179	0.384751	0.300239
12.8941	12.6174	0.385159	0.298108
12.8945	12.617	0.386473	0.299158
12.895	12.6165	0.385544	0.299489
12.8955	12.616	0.385215	0.30098
12.8959	12.6155	0.385848	0.299363
12.8964	12.615	0.38452	0.296869
12.8969	12.6146	0.386834	0.297346
12.8974	12.6141	0.385821	0.299183
12.8978	12.6136	0.384481	0.298427
12.8983	12.6132	0.383819	0.295535
12.8988	12.6127	0.38369	0.29594
