# 1304     AichiSR QXAFS
# Start     : 8.9544
# End       : 9.0544
# Dir       : Forward
# Points    : 300
# ScanTime  : 1.01549
# Date      : 13.04.23 22:31
# Ring Cur. : 25.6[mA]
12.7557	12.7558	0.401781	1.21993
12.7562	12.7553	0.399646	1.21933
12.7566	12.7548	0.400679	1.22284
12.7571	12.7543	0.399569	1.22305
12.7576	12.7539	0.399901	1.22038
12.7581	12.7534	0.400017	1.21776
12.7585	12.7529	0.401625	1.22167
12.759	12.7525	0.400889	1.22376
12.7595	12.752	0.400233	1.22073
12.7599	12.7516	0.400682	1.21973
12.7604	12.7511	0.402072	1.22214
12.7609	12.7506	0.400323	1.22465
12.7614	12.7501	0.400161	1.22473
12.7618	12.7497	0.401556	1.22495
12.7623	12.7492	0.40179	1.22056
12.7628	12.7487	0.4042	1.22493
12.7632	12.7483	0.403368	1.22418
12.7637	12.7478	0.401897	1.22528
12.7642	12.7473	0.400957	1.22467
12.7647	12.7469	0.400499	1.22125
12.7651	12.7464	0.402891	1.22388
12.7656	12.7459	0.400625	1.22058
12.7661	12.7454	0.402561	1.22429
12.7666	12.7449	0.402097	1.22528
12.767	12.7445	0.403712	1.22162
12.7675	12.744	0.40264	1.22324
12.768	12.7435	0.403603	1.2233
12.7684	12.7431	0.403006	1.22178
12.7689	12.7426	0.40113	1.22182
12.7694	12.7421	0.401201	1.21675
12.7699	12.7417	0.403308	1.22301
12.7703	12.7412	0.403467	1.21888
12.7708	12.7407	0.401772	1.22127
12.7713	12.7402	0.400868	1.21885
12.7717	12.7398	0.400558	1.21715
12.7722	12.7393	0.403545	1.22061
12.7727	12.7388	0.404014	1.21743
12.7732	12.7384	0.403554	1.22063
12.7736	12.7379	0.402952	1.2168
12.7741	12.7374	0.40267	1.21342
12.7746	12.7369	0.403092	1.21461
12.7751	12.7365	0.403433	1.21634
12.7755	12.736	0.402126	1.21597
12.776	12.7355	0.402322	1.21199
12.7765	12.735	0.401952	1.20872
12.7769	12.7345	0.402267	1.21088
12.7774	12.7341	0.403556	1.20996
12.7779	12.7336	0.403147	1.21158
12.7784	12.7331	0.402074	1.20643
12.7788	12.7326	0.40237	1.20172
12.7793	12.7322	0.405233	1.20088
12.7798	12.7317	0.402568	1.20055
12.7802	12.7312	0.401708	1.19676
12.7807	12.7308	0.40135	1.19283
12.7812	12.7303	0.401462	1.18963
12.7817	12.7298	0.402599	1.18606
12.7821	12.7294	0.403374	1.18611
12.7826	12.7289	0.403214	1.18088
12.7831	12.7284	0.401769	1.16999
12.7836	12.728	0.401441	1.16023
12.784	12.7275	0.403782	1.15433
12.7845	12.727	0.402396	1.13902
12.785	12.7265	0.400915	1.12814
12.7854	12.726	0.398481	1.10371
12.7859	12.7256	0.39536	1.07185
12.7864	12.7251	0.398028	1.03618
12.7869	12.7246	0.396217	0.994046
12.7873	12.7241	0.396099	0.942514
12.7878	12.7237	0.398018	0.878177
12.7883	12.7232	0.397758	0.810074
12.7887	12.7227	0.40168	0.755404
12.7892	12.7223	0.401987	0.709663
12.7897	12.7218	0.401391	0.671315
12.7902	12.7213	0.402041	0.645475
12.7906	12.7209	0.401662	0.629475
12.7911	12.7204	0.402301	0.620301
12.7916	12.7199	0.402826	0.623772
12.7921	12.7195	0.401275	0.627227
12.7925	12.719	0.401913	0.629752
12.793	12.7185	0.402478	0.633568
12.7935	12.7181	0.403807	0.638124
12.7939	12.7176	0.403114	0.640925
12.7944	12.7171	0.401336	0.639042
12.7949	12.7166	0.400832	0.631773
12.7954	12.7162	0.402296	0.620168
12.7958	12.7157	0.402553	0.608493
12.7963	12.7152	0.401752	0.602094
12.7968	12.7147	0.40057	0.589645
12.7972	12.7143	0.401456	0.576932
12.7977	12.7138	0.401182	0.565281
12.7982	12.7133	0.402398	0.557434
12.7987	12.7128	0.401482	0.546752
12.7991	12.7124	0.403175	0.536831
12.7996	12.7119	0.402835	0.525124
12.8001	12.7114	0.402275	0.510103
12.8006	12.711	0.403097	0.497308
12.801	12.7105	0.403149	0.483495
12.8015	12.71	0.401546	0.468584
12.802	12.7095	0.401204	0.449118
12.8024	12.7091	0.40192	0.432833
12.8029	12.7086	0.402723	0.416958
12.8034	12.7082	0.403307	0.401564
12.8039	12.7077	0.402597	0.384898
12.8043	12.7072	0.401697	0.367194
12.8048	12.7067	0.40225	0.351099
12.8053	12.7062	0.401504	0.338226
12.8057	12.7058	0.403611	0.327259
12.8062	12.7053	0.399997	0.315616
12.8067	12.7048	0.401361	0.30487
12.8072	12.7043	0.400582	0.295226
12.8076	12.7038	0.402716	0.290675
12.8081	12.7034	0.402136	0.287611
12.8086	12.7029	0.400861	0.283559
12.8091	12.7024	0.401766	0.281671
12.8095	12.702	0.401342	0.281229
12.81	12.7015	0.400843	0.282902
12.8105	12.701	0.40153	0.288057
12.8109	12.7005	0.401879	0.292341
12.8114	12.7001	0.402326	0.294769
12.8119	12.6996	0.400664	0.298961
12.8124	12.6991	0.401495	0.303854
12.8128	12.6987	0.400896	0.310036
12.8133	12.6982	0.400546	0.313853
12.8138	12.6977	0.400022	0.317275
12.8142	12.6973	0.400653	0.318872
12.8147	12.6968	0.400639	0.321432
12.8152	12.6963	0.401386	0.325427
12.8157	12.6958	0.399713	0.326312
12.8161	12.6954	0.400279	0.324962
12.8166	12.6949	0.399528	0.32372
12.8171	12.6944	0.400491	0.320889
12.8176	12.6939	0.399392	0.318048
12.818	12.6935	0.398364	0.313936
12.8185	12.693	0.398601	0.307554
12.819	12.6925	0.400019	0.301268
12.8194	12.6921	0.400606	0.296054
12.8199	12.6916	0.400698	0.292533
12.8204	12.6911	0.398	0.287418
12.8209	12.6907	0.398108	0.279768
12.8213	12.6902	0.3992	0.277142
12.8218	12.6897	0.400632	0.274775
12.8223	12.6893	0.39957	0.273732
12.8227	12.6888	0.397307	0.274145
12.8232	12.6883	0.399211	0.275948
12.8237	12.6879	0.399051	0.278102
12.8242	12.6874	0.397764	0.281726
12.8246	12.6869	0.399363	0.287448
12.8251	12.6864	0.397343	0.290566
12.8256	12.6859	0.39615	0.292941
12.8261	12.6855	0.397735	0.296412
12.8265	12.685	0.397557	0.300607
12.827	12.6845	0.397818	0.307136
12.8275	12.684	0.395725	0.30954
12.8279	12.6836	0.395819	0.311594
12.8284	12.6831	0.395397	0.312686
12.8289	12.6826	0.396829	0.317245
12.8294	12.6822	0.398459	0.322379
12.8298	12.6817	0.396021	0.324471
12.8303	12.6812	0.395551	0.326659
12.8308	12.6807	0.399147	0.328951
12.8312	12.6803	0.398611	0.33313
12.8317	12.6798	0.397947	0.337349
12.8322	12.6793	0.396139	0.339832
12.8327	12.6789	0.398278	0.340891
12.8331	12.6784	0.397556	0.340845
12.8336	12.6779	0.398987	0.341547
12.8341	12.6774	0.398255	0.344675
12.8346	12.677	0.397499	0.343956
12.835	12.6765	0.397086	0.342103
12.8355	12.676	0.398109	0.339803
12.836	12.6755	0.398286	0.342866
12.8364	12.675	0.397686	0.341603
12.8369	12.6746	0.397606	0.341013
12.8374	12.6741	0.395956	0.339046
12.8379	12.6736	0.398489	0.337647
12.8383	12.6731	0.396654	0.336737
12.8388	12.6727	0.399376	0.337023
12.8393	12.6722	0.396752	0.335215
12.8397	12.6718	0.396518	0.331299
12.8402	12.6713	0.396791	0.330035
12.8407	12.6708	0.39821	0.328254
12.8412	12.6703	0.398086	0.327402
12.8416	12.6699	0.397289	0.326766
12.8421	12.6694	0.3964	0.322572
12.8426	12.6689	0.398381	0.318722
12.8431	12.6685	0.396751	0.31702
12.8435	12.668	0.397114	0.316393
12.844	12.6675	0.396616	0.312397
12.8445	12.6671	0.395488	0.309876
12.8449	12.6666	0.397241	0.307433
12.8454	12.6661	0.39612	0.304971
12.8459	12.6656	0.39721	0.303677
12.8464	12.6652	0.394705	0.299042
12.8468	12.6647	0.396099	0.297601
12.8473	12.6642	0.397227	0.293521
12.8478	12.6637	0.396203	0.29275
12.8482	12.6633	0.396398	0.291838
12.8487	12.6628	0.395655	0.290123
12.8492	12.6623	0.395421	0.285574
12.8497	12.6619	0.395061	0.283762
12.8501	12.6614	0.396187	0.281786
12.8506	12.6609	0.395781	0.281348
12.8511	12.6605	0.3944	0.279299
12.8516	12.66	0.394775	0.277675
12.852	12.6595	0.395055	0.27419
12.8525	12.6591	0.39351	0.274072
12.853	12.6586	0.396205	0.273807
12.8534	12.6581	0.393144	0.272661
12.8539	12.6577	0.393837	0.270413
12.8544	12.6572	0.39592	0.269949
12.8549	12.6567	0.394243	0.270021
12.8553	12.6562	0.394085	0.273273
12.8558	12.6557	0.394425	0.273203
12.8563	12.6553	0.393005	0.271746
12.8567	12.6548	0.394344	0.273694
12.8572	12.6543	0.394949	0.276549
12.8577	12.6538	0.394459	0.279314
12.8582	12.6533	0.394395	0.279952
12.8586	12.6529	0.393569	0.279647
12.8591	12.6524	0.395472	0.282336
12.8596	12.652	0.394866	0.286571
12.8601	12.6515	0.393276	0.288967
12.8605	12.651	0.393286	0.292329
12.861	12.6505	0.392623	0.291228
12.8615	12.65	0.39414	0.295256
12.8619	12.6496	0.393941	0.297273
12.8624	12.6491	0.393814	0.30166
12.8629	12.6486	0.392459	0.303327
12.8634	12.6482	0.390956	0.302914
12.8638	12.6477	0.393726	0.30612
12.8643	12.6472	0.391505	0.307927
12.8648	12.6467	0.389976	0.309441
12.8652	12.6463	0.391455	0.310113
12.8657	12.6458	0.388715	0.309745
12.8662	12.6453	0.389208	0.310136
12.8667	12.6448	0.388718	0.312722
12.8671	12.6443	0.388119	0.314236
12.8676	12.6439	0.388232	0.314829
12.8681	12.6434	0.389639	0.314428
12.8686	12.6429	0.391837	0.316608
12.869	12.6425	0.390917	0.318327
12.8695	12.642	0.389726	0.32002
12.87	12.6416	0.390867	0.318488
12.8704	12.6411	0.390824	0.317777
12.8709	12.6406	0.391785	0.318445
12.8714	12.6401	0.391057	0.31817
12.8719	12.6397	0.389542	0.319363
12.8723	12.6392	0.391306	0.319043
12.8728	12.6387	0.38981	0.315207
12.8733	12.6383	0.390546	0.315997
12.8737	12.6378	0.388253	0.316154
12.8742	12.6373	0.390214	0.316536
12.8747	12.6368	0.388852	0.315502
12.8752	12.6364	0.389307	0.312302
12.8756	12.6359	0.390001	0.312255
12.8761	12.6354	0.390908	0.31228
12.8766	12.6349	0.38992	0.313235
12.8771	12.6345	0.389742	0.311184
12.8775	12.634	0.387376	0.309524
12.878	12.6335	0.389719	0.308081
12.8785	12.6331	0.389271	0.310834
12.8789	12.6326	0.3881	0.31054
12.8794	12.6321	0.388417	0.310414
12.8799	12.6317	0.38784	0.30835
12.8804	12.6312	0.389743	0.30885
12.8808	12.6307	0.388949	0.310457
12.8813	12.6302	0.388038	0.310823
12.8818	12.6298	0.388952	0.311208
12.8822	12.6293	0.385984	0.308994
12.8827	12.6288	0.388547	0.309393
12.8832	12.6284	0.389435	0.3125
12.8837	12.6279	0.387103	0.31151
12.8841	12.6274	0.387488	0.310281
12.8846	12.6269	0.386934	0.307829
12.8851	12.6265	0.391459	0.310571
12.8856	12.626	0.391916	0.312634
12.886	12.6255	0.387423	0.309432
12.8865	12.625	0.387129	0.308173
12.887	12.6245	0.387218	0.305232
12.8874	12.6241	0.386976	0.305582
12.8879	12.6236	0.388688	0.305853
12.8884	12.6231	0.384301	0.30475
12.8889	12.6227	0.386071	0.304068
12.8893	12.6222	0.386216	0.302849
12.8898	12.6217	0.388161	0.301229
12.8903	12.6212	0.387162	0.302745
12.8907	12.6208	0.386633	0.303047
12.8912	12.6203	0.385812	0.300391
12.8917	12.6198	0.384521	0.299604
12.8922	12.6193	0.387098	0.300102
12.8926	12.6189	0.386016	0.302293
12.8931	12.6184	0.383344	0.300629
12.8936	12.6179	0.385981	0.298954
12.8941	12.6175	0.38728	0.298399
12.8945	12.617	0.386484	0.300571
12.895	12.6165	0.385646	0.301319
12.8955	12.616	0.387299	0.301086
12.8959	12.6156	0.387301	0.300394
12.8964	12.6151	0.386368	0.297906
12.8969	12.6146	0.387813	0.299318
12.8974	12.6141	0.386817	0.300849
12.8978	12.6137	0.385534	0.300463
12.8983	12.6132	0.38621	0.297872
12.8988	12.6127	0.386702	0.296491
