# 1304     AichiSR QXAFS
# Start     : 8.9544
# End       : 9.0544
# Dir       : Forward
# Points    : 300
# ScanTime  : 1.01549
# Date      : 13.04.23 22:20
# Ring Cur. : 25.5[mA]
12.7557	12.7557	0.395516	1.20805
12.7562	12.7552	0.394934	1.2082
12.7566	12.7548	0.395499	1.20811
12.7571	12.7543	0.396607	1.20484
12.7576	12.7538	0.397103	1.20411
12.7581	12.7533	0.395459	1.20506
12.7585	12.7529	0.396291	1.21129
12.759	12.7524	0.395031	1.21133
12.7595	12.752	0.397443	1.20738
12.7599	12.7515	0.397183	1.2082
12.7604	12.751	0.398266	1.20911
12.7609	12.7505	0.398004	1.21169
12.7614	12.7501	0.396609	1.2086
12.7618	12.7496	0.397048	1.20894
12.7623	12.7491	0.397477	1.20665
12.7628	12.7487	0.39845	1.20953
12.7632	12.7482	0.397438	1.21187
12.7637	12.7477	0.396337	1.21002
12.7642	12.7473	0.395315	1.20784
12.7647	12.7468	0.397974	1.20619
12.7651	12.7463	0.395807	1.20509
12.7656	12.7458	0.397582	1.20876
12.7661	12.7454	0.397204	1.21168
12.7666	12.7449	0.398265	1.20536
12.767	12.7444	0.397603	1.20848
12.7675	12.7439	0.398166	1.2086
12.768	12.7435	0.399881	1.20997
12.7684	12.743	0.398562	1.20834
12.7689	12.7425	0.397789	1.20521
12.7694	12.7421	0.398873	1.20528
12.7699	12.7416	0.398067	1.20345
12.7703	12.7411	0.398493	1.21056
12.7708	12.7406	0.396231	1.20739
12.7713	12.7402	0.398225	1.20534
12.7717	12.7397	0.399791	1.20407
12.7722	12.7392	0.398641	1.20507
12.7727	12.7388	0.399633	1.2067
12.7732	12.7383	0.398106	1.20765
12.7736	12.7378	0.397762	1.20388
12.7741	12.7374	0.39909	1.20316
12.7746	12.7369	0.399816	1.20085
12.7751	12.7364	0.398178	1.20362
12.7755	12.7359	0.39812	1.2021
12.776	12.7354	0.397975	1.19858
12.7765	12.735	0.399566	1.19721
12.7769	12.7345	0.398798	1.19998
12.7774	12.734	0.398676	1.1972
12.7779	12.7335	0.399312	1.19677
12.7784	12.733	0.398012	1.19146
12.7788	12.7326	0.398563	1.18821
12.7793	12.7321	0.399148	1.19026
12.7798	12.7317	0.39859	1.18486
12.7802	12.7312	0.398505	1.18432
12.7807	12.7307	0.397789	1.17732
12.7812	12.7302	0.399349	1.17449
12.7817	12.7297	0.398195	1.17433
12.7821	12.7293	0.399835	1.1737
12.7826	12.7288	0.396676	1.16475
12.7831	12.7284	0.39605	1.15507
12.7836	12.7279	0.397637	1.14792
12.784	12.7274	0.397204	1.14061
12.7845	12.7269	0.397733	1.12358
12.785	12.7265	0.396287	1.10825
12.7854	12.726	0.395602	1.0825
12.7859	12.7255	0.394777	1.05032
12.7864	12.725	0.393236	1.01631
12.7869	12.7245	0.393317	0.972249
12.7873	12.7241	0.393731	0.917949
12.7878	12.7236	0.394538	0.850746
12.7883	12.7231	0.397168	0.78926
12.7887	12.7227	0.397549	0.742946
12.7892	12.7222	0.398938	0.694911
12.7897	12.7218	0.396858	0.658875
12.7902	12.7213	0.396406	0.633244
12.7906	12.7208	0.3984	0.62021
12.7911	12.7203	0.397854	0.617251
12.7916	12.7199	0.398799	0.619122
12.7921	12.7194	0.397739	0.617737
12.7925	12.7189	0.396508	0.620877
12.793	12.7185	0.400128	0.627719
12.7935	12.718	0.398157	0.633235
12.7939	12.7175	0.397178	0.634092
12.7944	12.7171	0.39663	0.628958
12.7949	12.7166	0.397702	0.620842
12.7954	12.7161	0.39906	0.609717
12.7958	12.7156	0.399122	0.602703
12.7963	12.7151	0.397791	0.594105
12.7968	12.7147	0.399866	0.58114
12.7972	12.7142	0.398055	0.566603
12.7977	12.7137	0.400182	0.558365
12.7982	12.7132	0.398926	0.550431
12.7987	12.7128	0.397677	0.540917
12.7991	12.7123	0.39721	0.528098
12.7996	12.7118	0.396751	0.515584
12.8001	12.7114	0.398258	0.502235
12.8006	12.7109	0.398544	0.489401
12.801	12.7104	0.398185	0.475627
12.8015	12.7099	0.39685	0.4586
12.802	12.7095	0.397166	0.440165
12.8024	12.709	0.398727	0.424064
12.8029	12.7086	0.396809	0.408876
12.8034	12.7081	0.397404	0.393513
12.8039	12.7076	0.397597	0.377278
12.8043	12.7071	0.396624	0.359504
12.8048	12.7066	0.397437	0.344758
12.8053	12.7062	0.398162	0.331741
12.8057	12.7057	0.397479	0.320962
12.8062	12.7052	0.398219	0.308969
12.8067	12.7047	0.396253	0.298624
12.8072	12.7042	0.398608	0.292294
12.8076	12.7038	0.398055	0.288264
12.8081	12.7033	0.397573	0.283896
12.8086	12.7028	0.396181	0.28066
12.8091	12.7024	0.397584	0.279034
12.8095	12.7019	0.398075	0.279548
12.81	12.7014	0.396518	0.282896
12.8105	12.7009	0.398628	0.286431
12.8109	12.7005	0.395937	0.289891
12.8114	12.7	0.396053	0.291581
12.8119	12.6995	0.399514	0.298223
12.8124	12.6991	0.396982	0.303892
12.8128	12.6986	0.39606	0.307596
12.8133	12.6981	0.397746	0.311473
12.8138	12.6977	0.397075	0.31339
12.8142	12.6972	0.398174	0.317771
12.8147	12.6967	0.397833	0.319393
12.8152	12.6962	0.395507	0.322852
12.8157	12.6958	0.395632	0.320499
12.8161	12.6953	0.396093	0.319753
12.8166	12.6948	0.397053	0.318839
12.8171	12.6943	0.397379	0.317334
12.8176	12.6939	0.396313	0.314863
12.818	12.6934	0.395912	0.309972
12.8185	12.6929	0.396334	0.301439
12.819	12.6925	0.396734	0.296976
12.8194	12.692	0.395327	0.291555
12.8199	12.6915	0.394263	0.287821
12.8204	12.6911	0.395145	0.281241
12.8209	12.6906	0.39524	0.27668
12.8213	12.6901	0.396956	0.273786
12.8218	12.6897	0.397157	0.271686
12.8223	12.6892	0.395539	0.272906
12.8227	12.6887	0.393313	0.272026
12.8232	12.6883	0.395274	0.273096
12.8237	12.6878	0.395853	0.276007
12.8242	12.6873	0.395086	0.281399
12.8246	12.6868	0.392817	0.284648
12.8251	12.6864	0.393309	0.287849
12.8256	12.6859	0.393505	0.291378
12.8261	12.6854	0.395016	0.296043
12.8265	12.6849	0.393544	0.300268
12.827	12.6844	0.391745	0.304647
12.8275	12.684	0.391838	0.306901
12.8279	12.6835	0.392184	0.308187
12.8284	12.683	0.392821	0.313146
12.8289	12.6826	0.393047	0.316515
12.8294	12.6821	0.390625	0.320502
12.8298	12.6816	0.39387	0.32135
12.8303	12.6811	0.392219	0.322484
12.8308	12.6807	0.394312	0.326447
12.8312	12.6802	0.394083	0.332442
12.8317	12.6797	0.394075	0.334095
12.8322	12.6793	0.394261	0.334515
12.8327	12.6788	0.394226	0.336532
12.8331	12.6783	0.394816	0.337846
12.8336	12.6779	0.3936	0.340868
12.8341	12.6774	0.393317	0.339502
12.8346	12.6769	0.392908	0.339048
12.835	12.6764	0.392465	0.338311
12.8355	12.6759	0.394092	0.337342
12.836	12.6755	0.393983	0.340902
12.8364	12.675	0.392355	0.33954
12.8369	12.6745	0.393484	0.336501
12.8374	12.674	0.394328	0.334741
12.8379	12.6735	0.393762	0.334365
12.8383	12.6731	0.393764	0.334381
12.8388	12.6726	0.392653	0.333843
12.8393	12.6722	0.392994	0.33018
12.8397	12.6717	0.393156	0.326486
12.8402	12.6712	0.392667	0.325032
12.8407	12.6707	0.393723	0.326099
12.8412	12.6703	0.391349	0.324148
12.8416	12.6698	0.392157	0.319077
12.8421	12.6693	0.393164	0.316577
12.8426	12.6689	0.3922	0.316105
12.8431	12.6684	0.392678	0.314371
12.8435	12.6679	0.392103	0.311726
12.844	12.6675	0.393087	0.307767
12.8445	12.667	0.393165	0.304683
12.8449	12.6665	0.39329	0.303089
12.8454	12.666	0.393523	0.302369
12.8459	12.6656	0.391588	0.300377
12.8464	12.6651	0.391728	0.295421
12.8468	12.6646	0.393888	0.293978
12.8473	12.6641	0.392135	0.291094
12.8478	12.6637	0.39365	0.291043
12.8482	12.6632	0.390588	0.288599
12.8487	12.6627	0.390675	0.283869
12.8492	12.6623	0.392984	0.281338
12.8497	12.6618	0.392037	0.280198
12.8501	12.6613	0.392177	0.280135
12.8506	12.6609	0.39045	0.278626
12.8511	12.6604	0.389821	0.274733
12.8516	12.6599	0.389992	0.273248
12.852	12.6595	0.391532	0.271926
12.8525	12.659	0.390718	0.272302
12.853	12.6585	0.389311	0.269934
12.8534	12.6581	0.388285	0.268636
12.8539	12.6576	0.391137	0.267478
12.8544	12.6571	0.389476	0.266589
12.8549	12.6566	0.390558	0.269276
12.8553	12.6561	0.390359	0.268805
12.8558	12.6557	0.389435	0.269451
12.8563	12.6552	0.389945	0.269202
12.8567	12.6547	0.39018	0.271545
12.8572	12.6542	0.390366	0.2738
12.8577	12.6537	0.389467	0.277755
12.8582	12.6533	0.390572	0.27664
12.8586	12.6528	0.389948	0.278137
12.8591	12.6523	0.390628	0.280795
12.8596	12.6519	0.389523	0.284815
12.8601	12.6514	0.389424	0.286129
12.8605	12.6509	0.389499	0.287605
12.861	12.6505	0.390966	0.289796
12.8615	12.65	0.389692	0.293116
12.8619	12.6495	0.388995	0.29603
12.8624	12.649	0.388861	0.297387
12.8629	12.6486	0.387671	0.299447
12.8634	12.6481	0.388667	0.299411
12.8638	12.6476	0.388371	0.302873
12.8643	12.6472	0.387663	0.306598
12.8648	12.6467	0.386159	0.306184
12.8652	12.6462	0.383814	0.306129
12.8657	12.6457	0.385143	0.305843
12.8662	12.6452	0.384933	0.30865
12.8667	12.6447	0.385784	0.310971
12.8671	12.6443	0.384853	0.312512
12.8676	12.6438	0.384317	0.311322
12.8681	12.6433	0.385784	0.311222
12.8686	12.6429	0.386489	0.314255
12.869	12.6424	0.386871	0.3164
12.8695	12.642	0.385664	0.31432
12.87	12.6415	0.38549	0.3136
12.8704	12.641	0.389397	0.315501
12.8709	12.6405	0.387701	0.31503
12.8714	12.6401	0.387106	0.316967
12.8719	12.6396	0.386137	0.315555
12.8723	12.6391	0.385792	0.313168
12.8728	12.6387	0.386935	0.31358
12.8733	12.6382	0.387842	0.31343
12.8737	12.6377	0.385787	0.313756
12.8742	12.6373	0.384229	0.312621
12.8747	12.6368	0.385239	0.309996
12.8752	12.6363	0.386601	0.309264
12.8756	12.6358	0.385591	0.308815
12.8761	12.6353	0.384954	0.309574
12.8766	12.6349	0.38442	0.308649
12.8771	12.6344	0.384747	0.306035
12.8775	12.6339	0.385605	0.306114
12.878	12.6335	0.385051	0.307735
12.8785	12.633	0.384393	0.307594
12.8789	12.6325	0.383242	0.306517
12.8794	12.6321	0.382605	0.304337
12.8799	12.6316	0.385276	0.305436
12.8804	12.6311	0.384803	0.306582
12.8808	12.6306	0.383126	0.30592
12.8813	12.6302	0.383291	0.306322
12.8818	12.6297	0.383382	0.30629
12.8822	12.6292	0.384865	0.305848
12.8827	12.6288	0.384371	0.306644
12.8832	12.6283	0.383974	0.309028
12.8837	12.6278	0.382886	0.306998
12.8841	12.6273	0.382748	0.30402
12.8846	12.6269	0.383836	0.304893
12.8851	12.6264	0.382668	0.306234
12.8856	12.6259	0.382081	0.305478
12.886	12.6254	0.381666	0.305659
12.8865	12.625	0.382397	0.302279
12.887	12.6245	0.385031	0.303554
12.8874	12.624	0.386614	0.306069
12.8879	12.6235	0.383683	0.304625
12.8884	12.6231	0.380427	0.300485
12.8889	12.6226	0.380717	0.29724
12.8893	12.6221	0.384276	0.299487
12.8898	12.6217	0.381473	0.298094
12.8903	12.6212	0.381411	0.298459
12.8907	12.6207	0.380986	0.298092
12.8912	12.6202	0.37989	0.295817
12.8917	12.6197	0.382981	0.295894
12.8922	12.6193	0.381987	0.29729
12.8926	12.6188	0.381727	0.298296
12.8931	12.6184	0.380687	0.296625
12.8936	12.6179	0.381066	0.295256
12.8941	12.6174	0.380968	0.295692
12.8945	12.6169	0.380919	0.29704
12.895	12.6164	0.380862	0.297318
12.8955	12.616	0.3806	0.295852
12.8959	12.6155	0.379651	0.29404
12.8964	12.615	0.382375	0.294342
12.8969	12.6145	0.382355	0.295703
12.8974	12.6141	0.380901	0.297268
12.8978	12.6136	0.380265	0.294415
12.8983	12.6131	0.38104	0.292179
12.8988	12.6127	0.383685	0.294083
