# 1304     AichiSR QXAFS
# Start     : 8.9544
# End       : 9.0544
# Dir       : Backward
# Points    : 300
# ScanTime  : 1.01549
# Date      : 13.04.23 22:28
# Ring Cur. : 25.4[mA]
12.7557	12.6118	0.297408	0.228714
12.7562	12.6123	0.295483	0.228301
12.7566	12.6127	0.298491	0.229106
12.7571	12.6132	0.298797	0.229129
12.7576	12.6136	0.298324	0.23065
12.7581	12.6141	0.297436	0.231179
12.7585	12.6146	0.30087	0.235372
12.759	12.6151	0.298017	0.232546
12.7595	12.6155	0.298815	0.230757
12.7599	12.616	0.3016	0.232766
12.7604	12.6165	0.301207	0.234179
12.7609	12.617	0.298725	0.234398
12.7614	12.6174	0.299543	0.234053
12.7618	12.6179	0.29893	0.232821
12.7623	12.6184	0.297252	0.23113
12.7628	12.6189	0.301332	0.233847
12.7632	12.6193	0.30213	0.236935
12.7637	12.6198	0.299236	0.233804
12.7642	12.6203	0.298139	0.231771
12.7647	12.6207	0.302618	0.234504
12.7651	12.6212	0.301783	0.234902
12.7656	12.6217	0.300424	0.236039
12.7661	12.6222	0.300808	0.235316
12.7666	12.6226	0.300111	0.234171
12.767	12.6231	0.302381	0.236034
12.7675	12.6236	0.300431	0.236223
12.768	12.624	0.301211	0.237637
12.7684	12.6245	0.29896	0.237034
12.7689	12.625	0.297725	0.236514
12.7694	12.6255	0.301719	0.239583
12.7699	12.626	0.300459	0.240821
12.7703	12.6264	0.300581	0.240228
12.7708	12.6269	0.299384	0.240937
12.7713	12.6274	0.300325	0.240015
12.7717	12.6279	0.30081	0.239137
12.7722	12.6283	0.30065	0.241962
12.7727	12.6288	0.301695	0.244033
12.7732	12.6293	0.301784	0.242213
12.7736	12.6297	0.300101	0.24032
12.7741	12.6302	0.301121	0.241839
12.7746	12.6307	0.302147	0.242365
12.7751	12.6312	0.301883	0.242418
12.7755	12.6316	0.301857	0.241171
12.776	12.6321	0.301078	0.239499
12.7765	12.6326	0.302556	0.240028
12.7769	12.633	0.302172	0.241836
12.7774	12.6335	0.302363	0.243531
12.7779	12.634	0.302479	0.242594
12.7784	12.6344	0.301919	0.241273
12.7788	12.6349	0.303133	0.242925
12.7793	12.6354	0.303225	0.24268
12.7798	12.6359	0.302214	0.242925
12.7802	12.6363	0.303205	0.244119
12.7807	12.6368	0.302216	0.242468
12.7812	12.6373	0.301855	0.242534
12.7817	12.6378	0.302139	0.246661
12.7821	12.6382	0.302589	0.247027
12.7826	12.6387	0.303041	0.24708
12.7831	12.6392	0.30154	0.243563
12.7836	12.6396	0.30478	0.247481
12.784	12.6401	0.304906	0.248592
12.7845	12.6406	0.303313	0.249488
12.785	12.641	0.303271	0.247665
12.7854	12.6415	0.304893	0.247267
12.7859	12.642	0.303015	0.246397
12.7864	12.6424	0.304588	0.249016
12.7869	12.6429	0.305824	0.251263
12.7873	12.6434	0.3013	0.246516
12.7878	12.6438	0.300801	0.244325
12.7883	12.6443	0.303673	0.244483
12.7887	12.6448	0.302879	0.246222
12.7892	12.6453	0.300836	0.2442
12.7897	12.6457	0.302902	0.244769
12.7902	12.6462	0.301823	0.242269
12.7906	12.6467	0.302504	0.241116
12.7911	12.6472	0.303842	0.242648
12.7916	12.6477	0.304541	0.244016
12.7921	12.6481	0.305297	0.239456
12.7925	12.6486	0.30348	0.236104
12.793	12.6491	0.305462	0.235444
12.7935	12.6496	0.304791	0.236143
12.7939	12.65	0.304672	0.233745
12.7944	12.6505	0.304597	0.230692
12.7949	12.651	0.306324	0.229718
12.7954	12.6515	0.30402	0.226582
12.7958	12.6519	0.305234	0.226395
12.7963	12.6524	0.307704	0.22696
12.7968	12.6529	0.306848	0.222329
12.7972	12.6533	0.306192	0.220163
12.7977	12.6538	0.307202	0.219718
12.7982	12.6543	0.306324	0.219066
12.7987	12.6547	0.306287	0.216875
12.7991	12.6552	0.307205	0.214866
12.7996	12.6557	0.307783	0.213591
12.8001	12.6562	0.307688	0.211566
12.8006	12.6567	0.308171	0.214051
12.801	12.6571	0.308057	0.214115
12.8015	12.6576	0.306114	0.212085
12.802	12.6581	0.306535	0.211228
12.8024	12.6586	0.307881	0.211924
12.8029	12.659	0.307422	0.213246
12.8034	12.6595	0.306358	0.214221
12.8039	12.66	0.309675	0.214211
12.8043	12.6604	0.307065	0.214972
12.8048	12.6609	0.306933	0.216303
12.8053	12.6614	0.30779	0.218625
12.8057	12.6618	0.308855	0.222291
12.8062	12.6623	0.308522	0.221464
12.8067	12.6628	0.308359	0.22282
12.8072	12.6632	0.309315	0.225963
12.8076	12.6637	0.308149	0.227366
12.8081	12.6642	0.308191	0.22908
12.8086	12.6646	0.308834	0.230292
12.8091	12.6651	0.308939	0.229502
12.8095	12.6656	0.307212	0.23063
12.81	12.6661	0.308752	0.236025
12.8105	12.6666	0.309277	0.238326
12.8109	12.667	0.308448	0.238025
12.8114	12.6675	0.308555	0.239286
12.8119	12.668	0.311039	0.242255
12.8124	12.6685	0.307009	0.24476
12.8128	12.6689	0.307506	0.246646
12.8133	12.6694	0.309843	0.249308
12.8138	12.6698	0.308923	0.249744
12.8142	12.6703	0.308656	0.250945
12.8147	12.6708	0.307864	0.25312
12.8152	12.6713	0.310072	0.257927
12.8157	12.6717	0.309111	0.256232
12.8161	12.6722	0.309594	0.257124
12.8166	12.6727	0.308651	0.260151
12.8171	12.6731	0.309824	0.261584
12.8176	12.6736	0.30661	0.262277
12.818	12.6741	0.309047	0.263079
12.8185	12.6745	0.310278	0.263244
12.819	12.675	0.307793	0.262634
12.8194	12.6755	0.309442	0.266206
12.8199	12.676	0.308972	0.267395
12.8204	12.6765	0.308579	0.266547
12.8209	12.6769	0.310434	0.267298
12.8213	12.6774	0.310077	0.268529
12.8218	12.6779	0.3092	0.267428
12.8223	12.6784	0.308336	0.267409
12.8227	12.6788	0.30951	0.266262
12.8232	12.6793	0.311656	0.266069
12.8237	12.6798	0.312994	0.26626
12.8242	12.6802	0.310508	0.263995
12.8246	12.6807	0.310953	0.262496
12.8251	12.6812	0.308185	0.258771
12.8256	12.6817	0.3101	0.256792
12.8261	12.6821	0.310863	0.255274
12.8265	12.6826	0.309253	0.25324
12.827	12.6831	0.309139	0.250077
12.8275	12.6835	0.309451	0.247913
12.8279	12.684	0.311634	0.246223
12.8284	12.6845	0.307549	0.242488
12.8289	12.685	0.309347	0.241113
12.8294	12.6855	0.309315	0.238519
12.8298	12.6859	0.309559	0.234737
12.8303	12.6864	0.309924	0.231087
12.8308	12.6869	0.309634	0.228033
12.8312	12.6874	0.310014	0.225829
12.8317	12.6878	0.310457	0.222842
12.8322	12.6883	0.311031	0.219064
12.8327	12.6888	0.311891	0.215855
12.8331	12.6892	0.312348	0.216417
12.8336	12.6897	0.312501	0.216085
12.8341	12.6902	0.31292	0.216805
12.8346	12.6906	0.311736	0.214694
12.835	12.6911	0.312567	0.217231
12.8355	12.6916	0.313994	0.222433
12.836	12.6921	0.311016	0.226286
12.8364	12.6925	0.311024	0.230013
12.8369	12.693	0.311314	0.232168
12.8374	12.6934	0.313935	0.238788
12.8379	12.6939	0.312478	0.241791
12.8383	12.6944	0.312945	0.247804
12.8388	12.6949	0.313338	0.252058
12.8393	12.6953	0.311748	0.250897
12.8397	12.6958	0.314013	0.253731
12.8402	12.6963	0.316071	0.256028
12.8407	12.6968	0.314307	0.255776
12.8412	12.6972	0.31292	0.253784
12.8416	12.6977	0.313054	0.251848
12.8421	12.6982	0.314509	0.250499
12.8426	12.6986	0.312401	0.246805
12.8431	12.6991	0.312592	0.244978
12.8435	12.6996	0.312317	0.24161
12.844	12.7	0.313244	0.236771
12.8445	12.7005	0.314833	0.232617
12.8449	12.701	0.314108	0.229916
12.8454	12.7015	0.313675	0.229296
12.8459	12.7019	0.313879	0.223987
12.8464	12.7024	0.31434	0.222914
12.8468	12.7029	0.315641	0.222412
12.8473	12.7033	0.314001	0.220468
12.8478	12.7038	0.314051	0.223929
12.8482	12.7043	0.314891	0.227053
12.8487	12.7048	0.315159	0.229733
12.8492	12.7053	0.316152	0.235156
12.8497	12.7057	0.31649	0.244189
12.8501	12.7062	0.314851	0.252672
12.8506	12.7067	0.315881	0.261302
12.8511	12.7072	0.316033	0.270236
12.8516	12.7077	0.317674	0.282406
12.852	12.7081	0.316481	0.293609
12.8525	12.7086	0.317182	0.308536
12.853	12.7091	0.318147	0.323715
12.8534	12.7095	0.31625	0.334415
12.8539	12.71	0.318998	0.348846
12.8544	12.7105	0.318928	0.362061
12.8549	12.7109	0.317723	0.376119
12.8553	12.7114	0.317508	0.387213
12.8558	12.7119	0.317665	0.397864
12.8563	12.7124	0.319391	0.408598
12.8567	12.7128	0.317805	0.417087
12.8572	12.7133	0.318332	0.428035
12.8577	12.7138	0.31668	0.43847
12.8582	12.7142	0.319538	0.444004
12.8586	12.7147	0.319449	0.451655
12.8591	12.7152	0.317976	0.462625
12.8596	12.7157	0.319485	0.469999
12.8601	12.7162	0.318035	0.481684
12.8605	12.7166	0.318833	0.487788
12.861	12.7171	0.321181	0.496611
12.8615	12.7176	0.318568	0.502804
12.8619	12.7181	0.318732	0.509158
12.8624	12.7185	0.317069	0.50686
12.8629	12.719	0.316947	0.503238
12.8634	12.7194	0.32044	0.502717
12.8638	12.7199	0.318871	0.498288
12.8643	12.7204	0.3165	0.492544
12.8648	12.7208	0.31654	0.492975
12.8652	12.7213	0.319322	0.495645
12.8657	12.7218	0.318908	0.501558
12.8662	12.7223	0.315676	0.511769
12.8667	12.7227	0.31646	0.538295
12.8671	12.7232	0.31705	0.571182
12.8676	12.7236	0.315635	0.606555
12.8681	12.7241	0.317624	0.658104
12.8686	12.7246	0.315527	0.710841
12.869	12.7251	0.314047	0.75976
12.8695	12.7255	0.312863	0.795253
12.87	12.726	0.314893	0.832606
12.8704	12.7265	0.318346	0.861984
12.8709	12.727	0.315118	0.877864
12.8714	12.7274	0.316995	0.895892
12.8719	12.7279	0.317671	0.909724
12.8723	12.7284	0.318024	0.914734
12.8728	12.7289	0.31967	0.924157
12.8733	12.7293	0.320751	0.935323
12.8737	12.7298	0.317606	0.933432
12.8742	12.7303	0.317466	0.934609
12.8747	12.7307	0.319769	0.942425
12.8752	12.7312	0.321068	0.945146
12.8756	12.7317	0.3181	0.941141
12.8761	12.7322	0.318675	0.950124
12.8766	12.7326	0.318803	0.955053
12.8771	12.7331	0.319772	0.950411
12.8775	12.7336	0.322352	0.958664
12.878	12.734	0.320221	0.964524
12.8785	12.7345	0.319617	0.962475
12.8789	12.735	0.319762	0.960976
12.8794	12.7355	0.321679	0.96321
12.8799	12.736	0.324078	0.969091
12.8804	12.7365	0.319117	0.96295
12.8808	12.7369	0.320038	0.969659
12.8813	12.7374	0.319808	0.967491
12.8818	12.7379	0.320096	0.96736
12.8822	12.7384	0.323798	0.974755
12.8827	12.7388	0.320484	0.974496
12.8832	12.7393	0.319671	0.970453
12.8837	12.7398	0.319729	0.971472
12.8841	12.7402	0.321699	0.974807
12.8846	12.7407	0.322602	0.973154
12.8851	12.7412	0.322178	0.974965
12.8856	12.7417	0.322367	0.981126
12.886	12.7421	0.321994	0.976898
12.8865	12.7426	0.320738	0.978002
12.887	12.7431	0.324881	0.977617
12.8874	12.7435	0.325567	0.986756
12.8879	12.744	0.322339	0.98389
12.8884	12.7445	0.320638	0.981431
12.8889	12.7449	0.32129	0.98156
12.8893	12.7454	0.324314	0.98415
12.8898	12.7459	0.323559	0.984733
12.8903	12.7464	0.32221	0.984243
12.8907	12.7468	0.322717	0.983408
12.8912	12.7473	0.323117	0.981221
12.8917	12.7478	0.325949	0.989415
12.8922	12.7483	0.325302	0.991177
12.8926	12.7487	0.324147	0.985098
12.8931	12.7492	0.323271	0.986747
12.8936	12.7497	0.324963	0.989365
12.8941	12.7501	0.326662	0.988054
12.8945	12.7506	0.323536	0.989612
12.895	12.7511	0.324687	0.992606
12.8955	12.7516	0.323311	0.987185
12.8959	12.752	0.322465	0.982611
12.8964	12.7525	0.325481	0.988868
12.8969	12.7529	0.324509	0.989525
12.8974	12.7534	0.323704	0.986462
12.8978	12.7539	0.32322	0.983345
12.8983	12.7543	0.323679	0.988718
12.8988	12.7548	0.326775	0.992239
